Typical Measured Spectrum of Semrock FF01-500/LP Optical Filter	
For wavelengths between 320 and 1120 nm, values near or below 3e-7 (Optical Density 6.5) are measurement noise limited.
For wavelengths < 320 nm and > 1120 nm, values near or below 3e-6 (Optical Density 5.5) are measurement noise limited. 
Data format:  Wavelength (nm) <tab> Transmission (0 to 1)
270.0	4.089e-05
270.2	4.0347e-05
270.4	3.9811e-05
270.6	3.9282e-05
270.8	3.8761e-05
271.0	3.8246e-05
271.2	3.7738e-05
271.4	3.7237e-05
271.6	3.6742e-05
271.8	3.6254e-05
272.0	3.5773e-05
272.2	3.5298e-05
272.4	3.4829e-05
272.6	3.4367e-05
272.8	3.3907e-05
273.0	3.2765e-05
273.2	3.1662e-05
273.4	3.0595e-05
273.6	2.9565e-05
273.8	2.8569e-05
274.0	2.7607e-05
274.2	2.6678e-05
274.4	2.5779e-05
274.6	2.4911e-05
274.8	2.4072e-05
275.0	2.3262e-05
275.2	2.1561e-05
275.4	1.9984e-05
275.6	1.8523e-05
275.8	1.7169e-05
276.0	1.5913e-05
276.2	1.475e-05
276.4	1.3671e-05
276.6	1.2672e-05
276.8	1.1745e-05
277.0	1.0886e-05
277.2	1.009e-05
277.4	9.3525e-06
277.6	8.6687e-06
277.8	8.4027e-06
278.0	8.8195e-06
278.2	9.2569e-06
278.4	9.7161e-06
278.6	1.0198e-05
278.8	1.0704e-05
279.0	1.1235e-05
279.2	1.1792e-05
279.4	1.2377e-05
279.6	1.2991e-05
279.8	1.3635e-05
280.0	1.4312e-05
280.2	1.5022e-05
280.4	1.5767e-05
280.6	1.6549e-05
280.8	1.737e-05
281.0	1.8231e-05
281.2	1.9136e-05
281.4	2.0085e-05
281.6	2.1081e-05
281.8	2.1502e-05
282.0	2.1045e-05
282.2	2.0598e-05
282.4	2.016e-05
282.6	1.9732e-05
282.8	1.9313e-05
283.0	1.8903e-05
283.2	1.8501e-05
283.4	1.8108e-05
283.6	1.7724e-05
283.8	1.7347e-05
284.0	1.6979e-05
284.2	1.6618e-05
284.4	1.6265e-05
284.6	1.5919e-05
284.8	1.5581e-05
285.0	1.525e-05
285.2	1.4926e-05
285.4	1.4609e-05
285.6	1.4299e-05
285.8	1.3903e-05
286.0	1.3418e-05
286.2	1.295e-05
286.4	1.2498e-05
286.6	1.2062e-05
286.8	1.1641e-05
287.0	1.1235e-05
287.2	1.0843e-05
287.4	1.0465e-05
287.6	1.01e-05
287.8	9.7476e-06
288.0	9.4076e-06
288.2	9.0794e-06
288.4	8.7626e-06
288.6	8.4569e-06
288.8	8.1619e-06
289.0	7.8772e-06
289.2	7.6024e-06
289.4	7.3371e-06
289.6	7.0812e-06
289.8	6.9477e-06
290.0	6.9152e-06
290.2	6.8828e-06
290.4	6.8505e-06
290.6	6.8184e-06
290.8	6.7864e-06
291.0	6.7546e-06
291.2	6.723e-06
291.4	6.6915e-06
291.6	6.6601e-06
291.8	6.6289e-06
292.0	6.5978e-06
292.2	6.5669e-06
292.4	6.5361e-06
292.6	6.5055e-06
292.8	6.475e-06
293.0	6.4447e-06
293.2	6.4145e-06
293.4	6.3844e-06
293.6	6.3545e-06
293.8	6.4119e-06
294.0	6.5266e-06
294.2	6.6435e-06
294.4	6.7624e-06
294.6	6.8835e-06
294.8	7.0067e-06
295.0	7.1321e-06
295.2	7.1225e-06
295.4	7.1129e-06
295.6	7.1015e-06
295.8	6.9736e-06
296.0	6.8481e-06
296.2	6.7248e-06
296.4	6.6037e-06
296.6	6.4848e-06
296.8	6.368e-06
297.0	6.2534e-06
297.2	6.1408e-06
297.4	6.0302e-06
297.6	5.9217e-06
297.8	5.815e-06
298.0	5.7103e-06
298.2	5.6075e-06
298.4	5.5066e-06
298.6	5.4074e-06
298.8	5.3101e-06
299.0	5.2144e-06
299.2	5.1206e-06
299.4	5.0284e-06
299.6	4.9378e-06
299.8	3.4493e-06
300.0	2.0296e-06
300.2	1.9379e-06
300.4	1.8504e-06
300.6	1.7669e-06
300.8	1.6871e-06
301.0	1.6109e-06
301.2	1.5382e-06
301.4	1.4687e-06
301.6	1.4024e-06
301.8	1.3391e-06
302.0	1.2492e-06
302.2	1.1638e-06
302.4	1.0843e-06
302.6	1.0102e-06
302.8	9.4113e-07
303.0	8.768e-07
303.2	8.1686e-07
303.4	7.6103e-07
303.6	7.0901e-07
303.8	6.6055e-07
304.0	7.2298e-07
304.2	8.3261e-07
304.4	9.5887e-07
304.6	1.1043e-06
304.8	1.2717e-06
305.0	1.4646e-06
305.2	1.6866e-06
305.4	1.9424e-06
305.6	2.237e-06
305.8	2.5762e-06
306.0	2.5518e-06
306.2	2.2612e-06
306.4	2.0038e-06
306.6	1.7756e-06
306.8	1.5734e-06
307.0	1.3943e-06
307.2	1.2355e-06
307.4	1.0948e-06
307.6	9.7015e-07
307.8	8.5968e-07
308.0	8.5258e-07
308.2	1.0084e-06
308.4	1.1926e-06
308.6	1.4106e-06
308.8	1.6683e-06
309.0	1.9732e-06
309.2	2.3337e-06
309.4	2.7601e-06
309.6	3.2645e-06
309.8	3.861e-06
310.0	4.5587e-06
310.2	5.3044e-06
310.4	6.1721e-06
310.6	7.1818e-06
310.8	8.3566e-06
311.0	9.7235e-06
311.2	1.1314e-05
311.4	1.3165e-05
311.6	1.5318e-05
311.8	1.7824e-05
312.0	1.8666e-05
312.2	1.944e-05
312.4	2.0246e-05
312.6	2.1086e-05
312.8	2.196e-05
313.0	2.2871e-05
313.2	2.3819e-05
313.4	2.4807e-05
313.6	2.5835e-05
313.8	2.6906e-05
314.0	2.4856e-05
314.2	2.2132e-05
314.4	1.9706e-05
314.6	1.7546e-05
314.8	1.5623e-05
315.0	1.391e-05
315.2	1.2386e-05
315.4	1.1028e-05
315.6	9.8195e-06
315.8	8.7432e-06
316.0	8.0573e-06
316.2	7.6046e-06
316.4	7.1775e-06
316.6	6.7743e-06
316.8	6.3938e-06
317.0	6.0346e-06
317.2	5.6956e-06
317.4	5.3757e-06
317.6	5.0737e-06
317.8	4.7887e-06
318.0	5.0463e-06
318.2	6.2317e-06
318.4	7.6956e-06
318.6	9.5034e-06
318.8	1.1736e-05
319.0	1.4493e-05
319.2	1.7897e-05
319.4	2.2101e-05
319.6	2.7293e-05
319.8	3.3704e-05
320.0	4.0924e-05
320.2	4.3899e-05
320.4	4.709e-05
320.6	5.0514e-05
320.8	5.4186e-05
321.0	5.8125e-05
321.2	6.235e-05
321.4	6.6883e-05
321.6	7.1745e-05
321.8	7.696e-05
322.0	7.0878e-05
322.2	6.4474e-05
322.4	5.8649e-05
322.6	5.335e-05
322.8	4.8529e-05
323.0	4.4145e-05
323.2	4.0156e-05
323.4	3.6528e-05
323.6	3.3228e-05
323.8	3.0226e-05
324.0	2.6726e-05
324.2	2.341e-05
324.4	2.0505e-05
324.6	1.7961e-05
324.8	1.5733e-05
325.0	1.378e-05
325.2	1.2071e-05
325.4	1.0573e-05
325.6	9.261e-06
325.8	8.1119e-06
326.0	7.4342e-06
326.2	7.0449e-06
326.4	6.6759e-06
326.6	6.3262e-06
326.8	5.9949e-06
327.0	5.6809e-06
327.2	5.3834e-06
327.4	5.1015e-06
327.6	4.8343e-06
327.8	4.5811e-06
328.0	4.3906e-06
328.2	4.2787e-06
328.4	4.1696e-06
328.6	4.0633e-06
328.8	3.9597e-06
329.0	3.8588e-06
329.2	3.7604e-06
329.4	3.6645e-06
329.6	3.5711e-06
329.8	3.4801e-06
330.0	3.4138e-06
330.2	3.5151e-06
330.4	3.6193e-06
330.6	3.7266e-06
330.8	3.8371e-06
331.0	3.9509e-06
331.2	4.068e-06
331.4	4.1886e-06
331.6	4.3128e-06
331.8	4.4407e-06
332.0	4.3097e-06
332.2	4.1581e-06
332.4	4.0119e-06
332.6	3.8708e-06
332.8	3.7346e-06
333.0	3.6033e-06
333.2	3.4766e-06
333.4	3.3543e-06
333.6	3.2364e-06
333.8	3.1225e-06
334.0	3.004e-06
334.2	2.887e-06
334.4	2.7745e-06
334.6	2.6665e-06
334.8	2.5626e-06
335.0	2.4628e-06
335.2	2.3669e-06
335.4	2.2747e-06
335.6	2.1861e-06
335.8	2.1009e-06
336.0	1.978e-06
336.2	1.8341e-06
336.4	1.7006e-06
336.6	1.5769e-06
336.8	1.4622e-06
337.0	1.3558e-06
337.2	1.2572e-06
337.4	1.1657e-06
337.6	1.0809e-06
337.8	1.0023e-06
338.0	9.4654e-07
338.2	9.1785e-07
338.4	8.9003e-07
338.6	8.6306e-07
338.8	8.369e-07
339.0	8.1153e-07
339.2	7.8693e-07
339.4	7.6308e-07
339.6	7.3995e-07
339.8	7.1752e-07
340.0	6.7125e-07
340.2	4.8847e-07
340.4	3.5546e-07
340.6	2.5867e-07
340.8	1.8823e-07
341.0	1.3698e-07
341.2	9.9679e-08
341.4	7.2537e-08
341.6	5.2785e-08
341.8	3.8412e-08
342.0	4.868e-08
342.2	6.5171e-08
342.4	8.725e-08
342.6	1.1681e-07
342.8	1.5638e-07
343.0	2.0936e-07
343.2	2.8029e-07
343.4	3.7524e-07
343.6	5.0236e-07
343.8	6.7256e-07
344.0	7.78e-07
344.2	8.5608e-07
344.4	9.42e-07
344.6	1.0365e-06
344.8	1.1406e-06
345.0	1.255e-06
345.2	1.381e-06
345.4	1.5196e-06
345.6	1.6721e-06
345.8	1.8399e-06
346.0	1.8462e-06
346.2	1.7353e-06
346.4	1.6311e-06
346.6	1.5331e-06
346.8	1.4411e-06
347.0	1.3545e-06
347.2	1.2731e-06
347.4	1.1967e-06
347.6	1.1248e-06
347.8	1.0572e-06
348.0	1.0274e-06
348.2	1.0446e-06
348.4	1.062e-06
348.6	1.0798e-06
348.8	1.0978e-06
349.0	1.1161e-06
349.2	1.1347e-06
349.4	1.1537e-06
349.6	1.1729e-06
349.8	1.1925e-06
350.0	1.2149e-06
350.2	1.2542e-06
350.4	1.2947e-06
350.6	1.3366e-06
350.8	1.3798e-06
351.0	1.4244e-06
351.2	1.4704e-06
351.4	1.5179e-06
351.6	1.567e-06
351.8	1.6176e-06
352.0	1.605e-06
352.2	1.5835e-06
352.4	1.5622e-06
352.6	1.5413e-06
352.8	1.5206e-06
353.0	1.5002e-06
353.2	1.4801e-06
353.4	1.4603e-06
353.6	1.4407e-06
353.8	1.4214e-06
354.0	1.3003e-06
354.2	1.155e-06
354.4	1.026e-06
354.6	9.1139e-07
354.8	8.0959e-07
355.0	7.1915e-07
355.2	6.3882e-07
355.4	5.6747e-07
355.6	5.0408e-07
355.8	4.4777e-07
356.0	4.2847e-07
356.2	4.3416e-07
356.4	4.3993e-07
356.6	4.4577e-07
356.8	4.5169e-07
357.0	4.5769e-07
357.2	4.6377e-07
357.4	4.6993e-07
357.6	4.7617e-07
357.8	4.8249e-07
358.0	4.9981e-07
358.2	5.341e-07
358.4	5.7074e-07
358.6	6.0989e-07
358.8	6.5174e-07
359.0	6.9645e-07
359.2	7.4423e-07
359.4	7.9529e-07
359.6	8.4985e-07
359.8	9.0815e-07
360.0	9.6621e-07
360.2	9.9824e-07
360.4	1.0313e-06
360.6	1.0655e-06
360.8	1.1008e-06
361.0	1.1373e-06
361.2	1.175e-06
361.4	1.2139e-06
361.6	1.2542e-06
361.8	1.2957e-06
362.0	1.196e-06
362.2	1.0894e-06
362.4	9.9229e-07
362.6	9.0384e-07
362.8	8.2329e-07
363.0	7.4991e-07
363.2	6.8307e-07
363.4	6.2219e-07
363.6	5.6674e-07
363.8	5.1622e-07
364.0	4.7065e-07
364.2	4.2923e-07
364.4	3.9146e-07
364.6	3.5701e-07
364.8	3.2559e-07
365.0	2.9694e-07
365.2	2.7081e-07
365.4	2.4698e-07
365.6	2.2524e-07
365.8	2.0542e-07
366.0	2.1268e-07
366.2	2.4005e-07
366.4	2.7094e-07
366.6	3.058e-07
366.8	3.4516e-07
367.0	3.8957e-07
367.2	4.3971e-07
367.4	4.9629e-07
367.6	5.6016e-07
367.8	6.3224e-07
368.0	6.8346e-07
368.2	7.0087e-07
368.4	7.1873e-07
368.6	7.3703e-07
368.8	7.5581e-07
369.0	7.7506e-07
369.2	7.948e-07
369.4	8.1504e-07
369.6	8.358e-07
369.8	8.5709e-07
370.0	8.7019e-07
370.2	8.3665e-07
370.4	8.044e-07
370.6	7.7339e-07
370.8	7.4358e-07
371.0	7.1492e-07
371.2	6.8737e-07
371.4	6.6087e-07
371.6	6.354e-07
371.8	6.1091e-07
372.0	6.3649e-07
372.2	6.7152e-07
372.4	7.0846e-07
372.6	7.4745e-07
372.8	7.8857e-07
373.0	8.3196e-07
373.2	8.7774e-07
373.4	9.2603e-07
373.6	9.7699e-07
373.8	1.0307e-06
374.0	9.964e-07
374.2	9.3178e-07
374.4	8.7135e-07
374.6	8.1484e-07
374.8	7.6199e-07
375.0	7.1257e-07
375.2	6.6636e-07
375.4	6.2314e-07
375.6	5.8273e-07
375.8	5.4494e-07
376.0	5.4909e-07
376.2	5.8401e-07
376.4	6.2115e-07
376.6	6.6065e-07
376.8	7.0267e-07
377.0	7.4735e-07
377.2	7.9488e-07
377.4	8.4543e-07
377.6	8.9919e-07
377.8	9.5638e-07
378.0	1.0028e-06
378.2	1.0327e-06
378.4	1.0635e-06
378.6	1.0951e-06
378.8	1.1277e-06
379.0	1.1613e-06
379.2	1.1959e-06
379.4	1.2315e-06
379.6	1.2682e-06
379.8	1.3059e-06
380.0	1.3303e-06
380.2	1.2745e-06
380.4	1.2209e-06
380.6	1.1697e-06
380.8	1.1205e-06
381.0	1.0735e-06
381.2	1.0284e-06
381.4	9.8519e-07
381.6	9.4381e-07
381.8	9.0417e-07
382.0	9.6867e-07
382.2	1.0568e-06
382.4	1.153e-06
382.6	1.258e-06
382.8	1.3725e-06
383.0	1.4974e-06
383.2	1.6337e-06
383.4	1.7824e-06
383.6	1.9446e-06
383.8	2.1216e-06
384.0	2.0349e-06
384.2	1.8563e-06
384.4	1.6934e-06
384.6	1.5448e-06
384.8	1.4092e-06
385.0	1.2856e-06
385.2	1.1728e-06
385.4	1.0698e-06
385.6	9.7596e-07
385.8	8.9032e-07
386.0	8.5773e-07
386.2	8.5893e-07
386.4	8.6014e-07
386.6	8.6136e-07
386.8	8.6257e-07
387.0	8.6378e-07
387.2	8.65e-07
387.4	8.6622e-07
387.6	8.6744e-07
387.8	8.6866e-07
388.0	8.571e-07
388.2	8.3082e-07
388.4	8.0535e-07
388.6	7.8065e-07
388.8	7.5672e-07
389.0	7.3352e-07
389.2	7.1103e-07
389.4	6.8923e-07
389.6	6.681e-07
389.8	6.4762e-07
390.0	6.3112e-07
390.2	6.325e-07
390.4	6.3388e-07
390.6	6.3527e-07
390.8	6.3666e-07
391.0	6.3806e-07
391.2	6.3945e-07
391.4	6.4085e-07
391.6	6.4226e-07
391.8	6.4366e-07
392.0	6.3773e-07
392.2	6.3053e-07
392.4	6.234e-07
392.6	6.1636e-07
392.8	6.094e-07
393.0	6.0251e-07
393.2	5.9571e-07
393.4	5.8898e-07
393.6	5.8232e-07
393.8	5.7575e-07
394.0	5.8053e-07
394.2	5.9008e-07
394.4	5.9978e-07
394.6	6.0964e-07
394.8	6.1967e-07
395.0	6.2985e-07
395.2	6.4021e-07
395.4	6.5073e-07
395.6	6.6143e-07
395.8	6.7231e-07
396.0	6.856e-07
396.2	7.0078e-07
396.4	7.1629e-07
396.6	7.3214e-07
396.8	7.4835e-07
397.0	7.6492e-07
397.2	7.8185e-07
397.4	7.9915e-07
397.6	8.1684e-07
397.8	8.3493e-07
398.0	8.2956e-07
398.2	7.9671e-07
398.4	7.6517e-07
398.6	7.3488e-07
398.8	7.0578e-07
399.0	6.7784e-07
399.2	6.51e-07
399.4	6.2522e-07
399.6	6.0047e-07
399.8	5.767e-07
400.0	5.5831e-07
400.2	5.6284e-07
400.4	5.674e-07
400.6	5.72e-07
400.8	5.7663e-07
401.0	5.813e-07
401.2	5.8602e-07
401.4	5.9077e-07
401.6	5.9555e-07
401.8	6.0038e-07
402.0	5.6823e-07
402.2	5.3138e-07
402.4	4.9692e-07
402.6	4.6469e-07
402.8	4.3456e-07
403.0	4.0637e-07
403.2	3.8002e-07
403.4	3.5537e-07
403.6	3.3233e-07
403.8	3.1078e-07
404.0	3.0094e-07
404.2	2.9551e-07
404.4	2.9017e-07
404.6	2.8493e-07
404.8	2.7978e-07
405.0	2.7472e-07
405.2	2.6976e-07
405.4	2.6489e-07
405.6	2.601e-07
405.8	2.554e-07
406.0	2.5621e-07
406.2	2.6087e-07
406.4	2.6561e-07
406.6	2.7044e-07
406.8	2.7536e-07
407.0	2.8037e-07
407.2	2.8547e-07
407.4	2.9066e-07
407.6	2.9594e-07
407.8	3.0132e-07
408.0	3.0093e-07
408.2	2.9406e-07
408.4	2.8735e-07
408.6	2.8078e-07
408.8	2.7437e-07
409.0	2.6811e-07
409.2	2.6199e-07
409.4	2.56e-07
409.6	2.5016e-07
409.8	2.4444e-07
410.0	2.4238e-07
410.2	2.5746e-07
410.4	2.7349e-07
410.6	2.9051e-07
410.8	3.0858e-07
411.0	3.2779e-07
411.2	3.4819e-07
411.4	3.6986e-07
411.6	3.9288e-07
411.8	4.1733e-07
412.0	4.234e-07
412.2	4.2568e-07
412.4	4.2798e-07
412.6	4.3029e-07
412.8	4.3261e-07
413.0	4.3494e-07
413.2	4.3729e-07
413.4	4.3964e-07
413.6	4.4201e-07
413.8	4.444e-07
414.0	4.4298e-07
414.2	4.4007e-07
414.4	4.3718e-07
414.6	4.343e-07
414.8	4.3144e-07
415.0	4.2861e-07
415.2	4.2579e-07
415.4	4.2299e-07
415.6	4.202e-07
415.8	4.1744e-07
416.0	4.1089e-07
416.2	4.0192e-07
416.4	3.9314e-07
416.6	3.8455e-07
416.8	3.7615e-07
417.0	3.6793e-07
417.2	3.599e-07
417.4	3.5203e-07
417.6	3.4435e-07
417.8	3.3682e-07
418.0	3.407e-07
418.2	3.5735e-07
418.4	3.7483e-07
418.6	3.9315e-07
418.8	4.1237e-07
419.0	4.3254e-07
419.2	4.5369e-07
419.4	4.7587e-07
419.6	4.9914e-07
419.8	5.2354e-07
420.0	5.4788e-07
420.2	5.6756e-07
420.4	5.8795e-07
420.6	6.0907e-07
420.8	6.3095e-07
421.0	6.5361e-07
421.2	6.7709e-07
421.4	7.0141e-07
421.6	7.2661e-07
421.8	7.5271e-07
422.0	7.7765e-07
422.2	8.0298e-07
422.4	8.2913e-07
422.6	8.5614e-07
422.8	8.8403e-07
423.0	9.1282e-07
423.2	9.4256e-07
423.4	9.7326e-07
423.6	1.005e-06
423.8	1.0377e-06
424.0	1.044e-06
424.2	1.04e-06
424.4	1.036e-06
424.6	1.0321e-06
424.8	1.0281e-06
425.0	1.0242e-06
425.2	1.0203e-06
425.4	1.0164e-06
425.6	1.0125e-06
425.8	1.0087e-06
426.0	1.0248e-06
426.2	1.0541e-06
426.4	1.0842e-06
426.6	1.1151e-06
426.8	1.147e-06
427.0	1.1797e-06
427.2	1.2134e-06
427.4	1.2481e-06
427.6	1.2837e-06
427.8	1.3204e-06
428.0	1.3511e-06
428.2	1.3755e-06
428.4	1.4004e-06
428.6	1.4258e-06
428.8	1.4516e-06
429.0	1.4778e-06
429.2	1.5046e-06
429.4	1.5318e-06
429.6	1.5595e-06
429.8	1.5877e-06
430.0	1.6122e-06
430.2	1.6195e-06
430.4	1.6268e-06
430.6	1.6342e-06
430.8	1.6416e-06
431.0	1.6491e-06
431.2	1.6566e-06
431.4	1.6641e-06
431.6	1.6716e-06
431.8	1.6792e-06
432.0	1.6851e-06
432.2	1.6905e-06
432.4	1.696e-06
432.6	1.7015e-06
432.8	1.707e-06
433.0	1.7125e-06
433.2	1.7181e-06
433.4	1.7237e-06
433.6	1.7292e-06
433.8	1.7348e-06
434.0	1.7676e-06
434.2	1.8127e-06
434.4	1.8589e-06
434.6	1.9062e-06
434.8	1.9548e-06
435.0	2.0047e-06
435.2	2.0558e-06
435.4	2.1082e-06
435.6	2.1619e-06
435.8	2.217e-06
436.0	2.2549e-06
436.2	2.281e-06
436.4	2.3073e-06
436.6	2.3339e-06
436.8	2.3609e-06
437.0	2.3881e-06
437.2	2.4157e-06
437.4	2.4436e-06
437.6	2.4718e-06
437.8	2.5003e-06
438.0	2.5168e-06
438.2	2.5208e-06
438.4	2.5249e-06
438.6	2.529e-06
438.8	2.5331e-06
439.0	2.5372e-06
439.2	2.5413e-06
439.4	2.5454e-06
439.6	2.5495e-06
439.8	2.5536e-06
440.0	2.5561e-06
440.2	2.5522e-06
440.4	2.5482e-06
440.6	2.5443e-06
440.8	2.5403e-06
441.0	2.5364e-06
441.2	2.5325e-06
441.4	2.5286e-06
441.6	2.5247e-06
441.8	2.5208e-06
442.0	2.5466e-06
442.2	2.5805e-06
442.4	2.6149e-06
442.6	2.6497e-06
442.8	2.6849e-06
443.0	2.7207e-06
443.2	2.7569e-06
443.4	2.7936e-06
443.6	2.8308e-06
443.8	2.8685e-06
444.0	2.8952e-06
444.2	2.9171e-06
444.4	2.9392e-06
444.6	2.9615e-06
444.8	2.9839e-06
445.0	3.0065e-06
445.2	3.0292e-06
445.4	3.0522e-06
445.6	3.0753e-06
445.8	3.0985e-06
446.0	3.1338e-06
446.2	3.1775e-06
446.4	3.2219e-06
446.6	3.2668e-06
446.8	3.3124e-06
447.0	3.3587e-06
447.2	3.4055e-06
447.4	3.4531e-06
447.6	3.5013e-06
447.8	3.5502e-06
448.0	3.6032e-06
448.2	3.6607e-06
448.4	3.7191e-06
448.6	3.7784e-06
448.8	3.8387e-06
449.0	3.8999e-06
449.2	3.9621e-06
449.4	4.0253e-06
449.6	4.0895e-06
449.8	4.1547e-06
450.0	2.8754e-07
450.2	3.3473e-08
450.4	6.7757e-08
450.6	1.2245e-07
450.8	6.0051e-08
451.0	2.945e-08
451.2	2.1426e-08
451.4	2.1385e-08
451.6	2.1336e-08
451.8	2.1278e-08
452.0	2.122e-08
452.2	2.7315e-08
452.4	3.5842e-08
452.6	6.034e-08
452.8	1.4649e-07
453.0	2.2874e-07
453.2	1.2756e-07
453.4	7.1135e-08
453.6	4.4433e-08
453.8	2.8683e-08
454.0	2.0648e-08
454.2	2.0614e-08
454.4	2.0578e-08
454.6	2.0522e-08
454.8	2.0467e-08
455.0	2.0408e-08
455.2	2.0345e-08
455.4	2.0284e-08
455.6	2.0234e-08
455.8	2.0183e-08
456.0	5.5587e-08
456.2	1.531e-07
456.4	1.6065e-07
456.6	5.8029e-08
456.8	2.096e-08
457.0	3.7218e-08
457.2	7.1864e-08
457.4	1.0769e-07
457.6	1.5432e-07
457.8	1.747e-07
458.0	1.212e-07
458.2	8.4088e-08
458.4	6.9944e-08
458.6	6.0879e-08
458.8	8.7498e-08
459.0	1.5591e-07
459.2	2.313e-07
459.4	1.4464e-07
459.6	9.0441e-08
459.8	7.014e-08
460.0	6.1082e-08
460.2	7.0949e-08
460.4	1.0431e-07
460.6	1.5041e-07
460.8	1.0169e-07
461.0	6.8751e-08
461.2	4.3515e-08
461.4	2.5784e-08
461.6	2.6462e-08
461.8	6.2989e-08
462.0	1.4994e-07
462.2	1.7941e-07
462.4	1.9371e-07
462.6	1.3728e-07
462.8	4.3745e-08
463.0	2.1935e-08
463.2	4.4471e-08
463.4	9.0162e-08
463.6	1.3364e-07
463.8	1.7538e-07
464.0	2.0753e-07
464.2	1.602e-07
464.4	1.2598e-07
464.6	1.1818e-07
464.8	1.1085e-07
465.0	7.1798e-08
465.2	3.5166e-08
465.4	1.8541e-08
465.6	3.9663e-08
465.8	8.4848e-08
466.0	8.851e-08
466.2	8.8193e-08
466.4	6.7429e-08
466.6	3.5492e-08
466.8	1.8681e-08
467.0	5.0121e-08
467.2	1.6279e-07
467.4	9.5385e-08
467.6	3.5451e-08
467.8	2.2225e-08
468.0	5.7272e-08
468.2	1.4758e-07
468.4	1.1841e-07
468.6	6.3721e-08
468.8	6.5255e-08
469.0	9.5967e-08
469.2	1.3471e-07
469.4	1.3433e-07
469.6	1.3396e-07
469.8	1.2867e-07
470.0	1.2048e-07
470.2	1.0366e-07
470.4	8.2746e-08
470.6	6.6123e-08
470.8	5.8809e-08
471.0	5.2303e-08
471.2	5.5463e-08
471.4	7.089e-08
471.6	8.8211e-08
471.8	1.0585e-07
472.0	1.2702e-07
472.2	1.3454e-07
472.4	1.4054e-07
472.6	1.1777e-07
472.8	6.8885e-08
473.0	4.7779e-08
473.2	4.7608e-08
473.4	4.7437e-08
473.6	4.7255e-08
473.8	4.7071e-08
474.0	5.4153e-08
474.2	9.1969e-08
474.4	1.2389e-07
474.6	6.7965e-08
474.8	3.7284e-08
475.0	2.5512e-08
475.2	1.9324e-08
475.4	1.8631e-08
475.6	6.3772e-08
475.8	1.5823e-07
476.0	5.8895e-08
476.2	2.1921e-08
476.4	1.5026e-08
476.6	1.4974e-08
476.8	1.4924e-08
477.0	1.4882e-08
477.2	1.517e-08
477.4	2.6158e-08
477.6	4.5106e-08
477.8	6.5739e-08
478.0	8.1775e-08
478.2	1.0172e-07
478.4	1.3161e-07
478.6	1.7032e-07
478.8	1.4155e-07
479.0	1.1379e-07
479.2	1.0584e-07
479.4	1.2144e-07
479.6	1.3935e-07
479.8	1.5802e-07
480.0	1.7891e-07
480.2	1.5565e-07
480.4	1.278e-07
480.6	1.0238e-07
480.8	7.7435e-08
481.0	5.8569e-08
481.2	7.8133e-08
481.4	1.2232e-07
481.6	1.0388e-07
481.8	7.1953e-08
482.0	5.8142e-08
482.2	7.9893e-08
482.4	1.0978e-07
482.6	1.1556e-07
482.8	1.0882e-07
483.0	1.0613e-07
483.2	1.0561e-07
483.4	9.5597e-08
483.6	4.1729e-08
483.8	1.8215e-08
484.0	2.274e-08
484.2	5.8045e-08
484.4	9.2919e-08
484.6	9.752e-08
484.8	1.0218e-07
485.0	7.7326e-08
485.2	5.8516e-08
485.4	4.728e-08
485.6	4.1012e-08
485.8	4.4153e-08
486.0	6.487e-08
486.2	9.5307e-08
486.4	1.0717e-07
486.6	1.1659e-07
486.8	1.1788e-07
487.0	1.052e-07
487.2	1.0307e-07
487.4	1.2052e-07
487.6	1.4093e-07
487.8	1.2638e-07
488.0	1.0713e-07
488.2	9.8593e-08
488.4	1.0944e-07
488.6	1.1609e-07
488.8	1.058e-07
489.0	9.643e-08
489.2	8.632e-08
489.4	7.6705e-08
489.6	7.2996e-08
489.8	9.3043e-08
490.0	1.1666e-07
490.2	1.2886e-07
490.4	1.4234e-07
490.6	1.0454e-07
490.8	5.816e-08
491.0	3.5047e-08
491.2	5.6578e-08
491.4	9.0385e-08
491.6	1.1231e-07
491.8	1.3955e-07
492.0	1.6083e-07
492.2	1.7294e-07
492.4	1.8595e-07
492.6	1.1237e-07
492.8	6.7903e-08
493.0	6.8724e-08
493.2	7.2746e-08
493.4	7.8198e-08
493.6	8.6024e-08
493.8	9.4632e-08
494.0	5.9351e-08
494.2	3.4478e-08
494.4	4.7272e-08
494.6	7.5871e-08
494.8	7.7498e-08
495.0	3.0968e-08
495.2	1.2374e-08
495.4	3.0182e-08
495.6	1.141e-07
495.8	1.4321e-07
496.0	1.1832e-07
496.2	1.0744e-07
496.4	1.4081e-07
496.6	1.8453e-07
496.8	1.7345e-07
497.0	1.3994e-07
497.2	1.3876e-07
497.4	1.5374e-07
497.6	1.6985e-07
497.8	1.8404e-07
498.0	1.9941e-07
498.2	2.2334e-07
498.4	2.5548e-07
498.6	2.7377e-07
498.8	2.7655e-07
499.0	2.7964e-07
499.2	3.1308e-07
499.4	3.5052e-07
499.6	3.7401e-07
499.8	3.7959e-07
500.0	4.0261e-07
500.2	4.55e-07
500.4	5.1421e-07
500.6	5.9249e-07
500.8	6.8433e-07
501.0	7.6834e-07
501.2	8.2209e-07
501.4	8.9531e-07
501.6	1.0133e-06
501.8	1.1468e-06
502.0	1.3048e-06
502.2	1.4866e-06
502.4	1.7166e-06
502.6	2.0518e-06
502.8	2.4256e-06
503.0	2.7663e-06
503.2	3.1549e-06
503.4	3.629e-06
503.6	4.1886e-06
503.8	4.8498e-06
504.0	5.6873e-06
504.2	6.6725e-06
504.4	7.8486e-06
504.6	9.2319e-06
504.8	1.0845e-05
505.0	1.2732e-05
505.2	1.4942e-05
505.4	1.7498e-05
505.6	2.0497e-05
505.8	2.4314e-05
506.0	2.8841e-05
506.2	3.4393e-05
506.4	4.1231e-05
506.6	4.9427e-05
506.8	5.8833e-05
507.0	7.0021e-05
507.2	8.4262e-05
507.4	1.0148e-04
507.6	1.2251e-04
507.8	1.484e-04
508.0	1.7977e-04
508.2	2.2023e-04
508.4	2.6895e-04
508.6	3.3059e-04
508.8	4.02e-04
509.0	4.9284e-04
509.2	6.0407e-04
509.4	7.4495e-04
509.6	9.1517e-04
509.8	0.00113
510.0	0.0014
510.2	0.00174
510.4	0.00217
510.6	0.00272
510.8	0.0034
511.0	0.00431
511.2	0.00517
511.4	0.00643
511.6	0.00816
511.8	0.01042
512.0	0.01336
512.2	0.01726
512.4	0.02223
512.6	0.02824
512.8	0.0358
513.0	0.0468
513.2	0.06158
513.4	0.08101
513.6	0.10677
513.8	0.1412
514.0	0.18395
514.2	0.23594
514.4	0.30422
514.6	0.38514
514.8	0.4772
515.0	0.57395
515.2	0.66889
515.4	0.75506
515.6	0.82804
515.8	0.87902
516.0	0.914
516.2	0.93466
516.4	0.94654
516.6	0.9511
516.8	0.95256
517.0	0.95138
517.2	0.9509
517.4	0.94965
517.6	0.94871
517.8	0.94892
518.0	0.94923
518.2	0.95019
518.4	0.95067
518.6	0.95149
518.8	0.95353
519.0	0.95449
519.2	0.95526
519.4	0.95574
519.6	0.95666
519.8	0.95667
520.0	0.95659
520.2	0.95612
520.4	0.95568
520.6	0.95474
520.8	0.95377
521.0	0.95342
521.2	0.95287
521.4	0.95184
521.6	0.95172
521.8	0.95131
522.0	0.95102
522.2	0.95143
522.4	0.95119
522.6	0.95188
522.8	0.95237
523.0	0.95303
523.2	0.95347
523.4	0.95447
523.6	0.95558
523.8	0.95648
524.0	0.95747
524.2	0.95797
524.4	0.95889
524.6	0.95969
524.8	0.96
525.0	0.96088
525.2	0.96062
525.4	0.96124
525.6	0.9611
525.8	0.96104
526.0	0.9612
526.2	0.96113
526.4	0.96078
526.6	0.96017
526.8	0.96019
527.0	0.9597
527.2	0.95917
527.4	0.95904
527.6	0.95857
527.8	0.95833
528.0	0.95813
528.2	0.95826
528.4	0.95796
528.6	0.95801
528.8	0.95798
529.0	0.95797
529.2	0.95822
529.4	0.95855
529.6	0.95886
529.8	0.95884
530.0	0.95886
530.2	0.95942
530.4	0.96006
530.6	0.96006
530.8	0.96022
531.0	0.9605
531.2	0.96094
531.4	0.96061
531.6	0.96064
531.8	0.96093
532.0	0.96072
532.2	0.96042
532.4	0.96073
532.6	0.9603
532.8	0.96013
533.0	0.95992
533.2	0.95935
533.4	0.95891
533.6	0.95879
533.8	0.95859
534.0	0.95806
534.2	0.95763
534.4	0.95706
534.6	0.95693
534.8	0.95641
535.0	0.9565
535.2	0.95592
535.4	0.95529
535.6	0.95536
535.8	0.955
536.0	0.95497
536.2	0.95494
536.4	0.95492
536.6	0.95471
536.8	0.95465
537.0	0.955
537.2	0.95518
537.4	0.95525
537.6	0.95574
537.8	0.95625
538.0	0.95675
538.2	0.95672
538.4	0.95739
538.6	0.95753
538.8	0.95809
539.0	0.95857
539.2	0.95911
539.4	0.95946
539.6	0.95972
539.8	0.95996
540.0	0.96054
540.2	0.96113
540.4	0.96123
540.6	0.96115
540.8	0.96096
541.0	0.96124
541.2	0.96144
541.4	0.96104
541.6	0.96107
541.8	0.96141
542.0	0.96103
542.2	0.96052
542.4	0.96004
542.6	0.96057
542.8	0.96022
543.0	0.95943
543.2	0.9594
543.4	0.95929
543.6	0.95876
543.8	0.95891
544.0	0.95859
544.2	0.95845
544.4	0.95798
544.6	0.95799
544.8	0.95761
545.0	0.95737
545.2	0.95728
545.4	0.95725
545.6	0.95654
545.8	0.95699
546.0	0.95661
546.2	0.95661
546.4	0.95643
546.6	0.95672
546.8	0.95693
547.0	0.95669
547.2	0.95653
547.4	0.95662
547.6	0.95672
547.8	0.9568
548.0	0.95737
548.2	0.95747
548.4	0.95743
548.6	0.95768
548.8	0.95784
549.0	0.95796
549.2	0.95764
549.4	0.95772
549.6	0.95828
549.8	0.95794
550.0	0.95815
550.2	0.95775
550.4	0.95845
550.6	0.95829
550.8	0.95814
551.0	0.95786
551.2	0.95838
551.4	0.95811
551.6	0.95824
551.8	0.95818
552.0	0.95837
552.2	0.95819
552.4	0.95864
552.6	0.95816
552.8	0.9585
553.0	0.95805
553.2	0.95786
553.4	0.95776
553.6	0.95799
553.8	0.95826
554.0	0.95847
554.2	0.95851
554.4	0.95826
554.6	0.95893
554.8	0.95894
555.0	0.95953
555.2	0.95923
555.4	0.95934
555.6	0.95932
555.8	0.95972
556.0	0.95978
556.2	0.95982
556.4	0.96019
556.6	0.96085
556.8	0.96057
557.0	0.96127
557.2	0.96157
557.4	0.9611
557.6	0.96165
557.8	0.96177
558.0	0.96215
558.2	0.96267
558.4	0.96315
558.6	0.96321
558.8	0.9631
559.0	0.96293
559.2	0.96338
559.4	0.96337
559.6	0.96353
559.8	0.96368
560.0	0.96381
560.2	0.96376
560.4	0.96348
560.6	0.9638
560.8	0.96304
561.0	0.96309
561.2	0.96355
561.4	0.96298
561.6	0.96268
561.8	0.96253
562.0	0.96229
562.2	0.96174
562.4	0.96209
562.6	0.96169
562.8	0.96131
563.0	0.96073
563.2	0.96064
563.4	0.95986
563.6	0.95933
563.8	0.9598
564.0	0.95934
564.2	0.95901
564.4	0.95905
564.6	0.95835
564.8	0.95773
565.0	0.95765
565.2	0.95801
565.4	0.95794
565.6	0.95781
565.8	0.95732
566.0	0.95748
566.2	0.95707
566.4	0.95737
566.6	0.95787
566.8	0.95791
567.0	0.95799
567.2	0.95776
567.4	0.95853
567.6	0.95805
567.8	0.95872
568.0	0.95889
568.2	0.95887
568.4	0.95919
568.6	0.9593
568.8	0.95984
569.0	0.95912
569.2	0.95946
569.4	0.96013
569.6	0.96042
569.8	0.96092
570.0	0.96094
570.2	0.96119
570.4	0.96104
570.6	0.96136
570.8	0.96159
571.0	0.96095
571.2	0.96147
571.4	0.96194
571.6	0.96152
571.8	0.96163
572.0	0.96215
572.2	0.96172
572.4	0.96196
572.6	0.96145
572.8	0.96205
573.0	0.96164
573.2	0.96096
573.4	0.96153
573.6	0.96119
573.8	0.96129
574.0	0.96103
574.2	0.96128
574.4	0.961
574.6	0.9612
574.8	0.96091
575.0	0.96059
575.2	0.96042
575.4	0.96015
575.6	0.96025
575.8	0.9603
576.0	0.95971
576.2	0.95961
576.4	0.95943
576.6	0.95895
576.8	0.95905
577.0	0.9584
577.2	0.95901
577.4	0.95869
577.6	0.95851
577.8	0.95825
578.0	0.95823
578.2	0.95765
578.4	0.95812
578.6	0.95754
578.8	0.95758
579.0	0.95759
579.2	0.95752
579.4	0.95797
579.6	0.95776
579.8	0.95766
580.0	0.95798
580.2	0.95844
580.4	0.95818
580.6	0.95833
580.8	0.95822
581.0	0.9586
581.2	0.95842
581.4	0.95851
581.6	0.9585
581.8	0.95854
582.0	0.95862
582.2	0.95855
582.4	0.95886
582.6	0.95894
582.8	0.95886
583.0	0.95882
583.2	0.9587
583.4	0.95856
583.6	0.95901
583.8	0.95899
584.0	0.95896
584.2	0.95872
584.4	0.95873
584.6	0.95872
584.8	0.9584
585.0	0.95856
585.2	0.95849
585.4	0.95843
585.6	0.95879
585.8	0.95839
586.0	0.95828
586.2	0.95802
586.4	0.95837
586.6	0.95839
586.8	0.95829
587.0	0.95788
587.2	0.95776
587.4	0.95752
587.6	0.95792
587.8	0.95755
588.0	0.95741
588.2	0.95746
588.4	0.95741
588.6	0.95735
588.8	0.95761
589.0	0.95748
589.2	0.95748
589.4	0.95759
589.6	0.95771
589.8	0.95739
590.0	0.95732
590.2	0.95756
590.4	0.95739
590.6	0.9576
590.8	0.95767
591.0	0.95754
591.2	0.95788
591.4	0.95785
591.6	0.95788
591.8	0.95803
592.0	0.95788
592.2	0.95814
592.4	0.95814
592.6	0.95864
592.8	0.95822
593.0	0.95857
593.2	0.95847
593.4	0.95854
593.6	0.95875
593.8	0.9586
594.0	0.95904
594.2	0.95859
594.4	0.95871
594.6	0.95828
594.8	0.95877
595.0	0.9587
595.2	0.95893
595.4	0.95873
595.6	0.95892
595.8	0.95887
596.0	0.95927
596.2	0.95855
596.4	0.95875
596.6	0.95835
596.8	0.95818
597.0	0.95844
597.2	0.95827
597.4	0.95797
597.6	0.958
597.8	0.95792
598.0	0.95721
598.2	0.95758
598.4	0.95721
598.6	0.95726
598.8	0.95703
599.0	0.95667
599.2	0.95638
599.4	0.95643
599.6	0.95621
599.8	0.95598
600.0	0.95562
600.2	0.95539
600.4	0.95531
600.6	0.95514
600.8	0.95495
601.0	0.95473
601.2	0.95488
601.4	0.95456
601.6	0.95469
601.8	0.95449
602.0	0.95452
602.2	0.95446
602.4	0.95453
602.6	0.95436
602.8	0.95447
603.0	0.95451
603.2	0.95456
603.4	0.95487
603.6	0.95466
603.8	0.9548
604.0	0.95489
604.2	0.95558
604.4	0.95517
604.6	0.95553
604.8	0.95599
605.0	0.95615
605.2	0.95649
605.4	0.9568
605.6	0.9572
605.8	0.95764
606.0	0.95778
606.2	0.95812
606.4	0.95838
606.6	0.9587
606.8	0.95932
607.0	0.95972
607.2	0.95999
607.4	0.96044
607.6	0.96063
607.8	0.96096
608.0	0.96141
608.2	0.96146
608.4	0.96193
608.6	0.96203
608.8	0.96271
609.0	0.96316
609.2	0.96308
609.4	0.96376
609.6	0.9635
609.8	0.96379
610.0	0.96391
610.2	0.96398
610.4	0.96381
610.6	0.96434
610.8	0.96385
611.0	0.96441
611.2	0.96447
611.4	0.96432
611.6	0.96475
611.8	0.96457
612.0	0.96432
612.2	0.96417
612.4	0.96386
612.6	0.96418
612.8	0.96392
613.0	0.96351
613.2	0.96337
613.4	0.9628
613.6	0.96277
613.8	0.96255
614.0	0.9628
614.2	0.96197
614.4	0.96201
614.6	0.96199
614.8	0.96101
615.0	0.96128
615.2	0.96118
615.4	0.96039
615.6	0.96018
615.8	0.95973
616.0	0.95968
616.2	0.9594
616.4	0.95898
616.6	0.95883
616.8	0.95845
617.0	0.95842
617.2	0.9579
617.4	0.95827
617.6	0.95772
617.8	0.95729
618.0	0.95738
618.2	0.95753
618.4	0.95703
618.6	0.95757
618.8	0.95711
619.0	0.95697
619.2	0.95724
619.4	0.95707
619.6	0.95711
619.8	0.95716
620.0	0.95775
620.2	0.95756
620.4	0.95776
620.6	0.95753
620.8	0.9579
621.0	0.95792
621.2	0.95856
621.4	0.95867
621.6	0.95864
621.8	0.95901
622.0	0.95916
622.2	0.95943
622.4	0.95956
622.6	0.96001
622.8	0.96017
623.0	0.96068
623.2	0.96048
623.4	0.96059
623.6	0.96111
623.8	0.96145
624.0	0.96192
624.2	0.96176
624.4	0.9622
624.6	0.9624
624.8	0.96266
625.0	0.96273
625.2	0.96296
625.4	0.96335
625.6	0.9635
625.8	0.96355
626.0	0.96363
626.2	0.96364
626.4	0.96387
626.6	0.96416
626.8	0.96365
627.0	0.96385
627.2	0.96369
627.4	0.96407
627.6	0.96387
627.8	0.96393
628.0	0.96392
628.2	0.9638
628.4	0.96359
628.6	0.96324
628.8	0.96317
629.0	0.96319
629.2	0.96297
629.4	0.96278
629.6	0.96244
629.8	0.96228
630.0	0.96239
630.2	0.96175
630.4	0.96126
630.6	0.96139
630.8	0.9603
631.0	0.96005
631.2	0.9602
631.4	0.9601
631.6	0.95974
631.8	0.95923
632.0	0.95945
632.2	0.95896
632.4	0.95874
632.6	0.95835
632.8	0.95786
633.0	0.95842
633.2	0.95779
633.4	0.95801
633.6	0.95766
633.8	0.95755
634.0	0.95711
634.2	0.95733
634.4	0.95709
634.6	0.95724
634.8	0.95733
635.0	0.95692
635.2	0.95711
635.4	0.957
635.6	0.95665
635.8	0.95681
636.0	0.95669
636.2	0.9571
636.4	0.95704
636.6	0.95717
636.8	0.95711
637.0	0.95787
637.2	0.95756
637.4	0.95711
637.6	0.95803
637.8	0.95817
638.0	0.95798
638.2	0.95906
638.4	0.95829
638.6	0.95868
638.8	0.95877
639.0	0.95937
639.2	0.95957
639.4	0.95913
639.6	0.95998
639.8	0.95975
640.0	0.96022
640.2	0.96055
640.4	0.96111
640.6	0.96094
640.8	0.96152
641.0	0.96144
641.2	0.9613
641.4	0.96177
641.6	0.96229
641.8	0.96191
642.0	0.9623
642.2	0.96225
642.4	0.96228
642.6	0.96267
642.8	0.96271
643.0	0.96287
643.2	0.96265
643.4	0.96323
643.6	0.96271
643.8	0.9629
644.0	0.96293
644.2	0.96286
644.4	0.96274
644.6	0.96305
644.8	0.96265
645.0	0.96254
645.2	0.96267
645.4	0.96242
645.6	0.96209
645.8	0.96202
646.0	0.96205
646.2	0.96187
646.4	0.96174
646.6	0.96158
646.8	0.96125
647.0	0.96083
647.2	0.96089
647.4	0.96085
647.6	0.96054
647.8	0.96047
648.0	0.96026
648.2	0.95994
648.4	0.95974
648.6	0.95945
648.8	0.95953
649.0	0.95933
649.2	0.95901
649.4	0.95895
649.6	0.95868
649.8	0.95867
650.0	0.95881
650.2	0.95924
650.4	0.95797
650.6	0.95816
650.8	0.95775
651.0	0.9583
651.2	0.95826
651.4	0.95799
651.6	0.9578
651.8	0.95742
652.0	0.95821
652.2	0.9575
652.4	0.95739
652.6	0.95823
652.8	0.95714
653.0	0.95757
653.2	0.95783
653.4	0.95817
653.6	0.95789
653.8	0.95837
654.0	0.95797
654.2	0.95809
654.4	0.95841
654.6	0.95911
654.8	0.95922
655.0	0.95933
655.2	0.95974
655.4	0.95946
655.6	0.95992
655.8	0.96018
656.0	0.96046
656.2	0.96052
656.4	0.96111
656.6	0.96139
656.8	0.96156
657.0	0.96189
657.2	0.96211
657.4	0.96254
657.6	0.96272
657.8	0.96294
658.0	0.96305
658.2	0.96318
658.4	0.96384
658.6	0.96334
658.8	0.96466
659.0	0.96407
659.2	0.9642
659.4	0.96401
659.6	0.96494
659.8	0.96439
660.0	0.96466
660.2	0.9655
660.4	0.96521
660.6	0.96547
660.8	0.96558
661.0	0.96563
661.2	0.96585
661.4	0.9658
661.6	0.96598
661.8	0.96586
662.0	0.96575
662.2	0.96572
662.4	0.96565
662.6	0.96571
662.8	0.96547
663.0	0.96525
663.2	0.96556
663.4	0.9656
663.6	0.96543
663.8	0.96518
664.0	0.96489
664.2	0.96489
664.4	0.96449
664.6	0.96461
664.8	0.96437
665.0	0.96396
665.2	0.96386
665.4	0.96349
665.6	0.96349
665.8	0.96313
666.0	0.96297
666.2	0.96268
666.4	0.96259
666.6	0.96229
666.8	0.96224
667.0	0.96184
667.2	0.96182
667.4	0.96143
667.6	0.96086
667.8	0.96104
668.0	0.96084
668.2	0.9607
668.4	0.96056
668.6	0.96029
668.8	0.95984
669.0	0.9598
669.2	0.95976
669.4	0.95973
669.6	0.95946
669.8	0.95919
670.0	0.9594
670.2	0.95923
670.4	0.95887
670.6	0.95887
670.8	0.95873
671.0	0.95874
671.2	0.95844
671.4	0.95836
671.6	0.95844
671.8	0.95853
672.0	0.95839
672.2	0.95834
672.4	0.95847
672.6	0.95838
672.8	0.95881
673.0	0.9585
673.2	0.95869
673.4	0.9587
673.6	0.95861
673.8	0.9587
674.0	0.95932
674.2	0.95895
674.4	0.9591
674.6	0.95924
674.8	0.9595
675.0	0.95941
675.2	0.95949
675.4	0.95957
675.6	0.95978
675.8	0.95994
676.0	0.96006
676.2	0.95993
676.4	0.96045
676.6	0.96043
676.8	0.96057
677.0	0.9606
677.2	0.96081
677.4	0.96089
677.6	0.9609
677.8	0.96112
678.0	0.96113
678.2	0.96124
678.4	0.96119
678.6	0.96139
678.8	0.96148
679.0	0.96162
679.2	0.96158
679.4	0.96162
679.6	0.96171
679.8	0.96157
680.0	0.96196
680.2	0.96223
680.4	0.96153
680.6	0.96242
680.8	0.96159
681.0	0.96204
681.2	0.96189
681.4	0.9618
681.6	0.96193
681.8	0.96175
682.0	0.96181
682.2	0.96132
682.4	0.96129
682.6	0.96146
682.8	0.96149
683.0	0.96112
683.2	0.96093
683.4	0.96091
683.6	0.96082
683.8	0.96061
684.0	0.96057
684.2	0.96012
684.4	0.96015
684.6	0.96017
684.8	0.95989
685.0	0.95998
685.2	0.95981
685.4	0.95964
685.6	0.95932
685.8	0.95933
686.0	0.95896
686.2	0.95906
686.4	0.95895
686.6	0.95877
686.8	0.95863
687.0	0.95858
687.2	0.95856
687.4	0.95798
687.6	0.95853
687.8	0.95805
688.0	0.95795
688.2	0.95779
688.4	0.95742
688.6	0.95739
688.8	0.95737
689.0	0.95724
689.2	0.95693
689.4	0.95731
689.6	0.95667
689.8	0.9575
690.0	0.957
690.2	0.9569
690.4	0.95693
690.6	0.95689
690.8	0.95746
691.0	0.95722
691.2	0.95729
691.4	0.95723
691.6	0.95723
691.8	0.95714
692.0	0.95724
692.2	0.95728
692.4	0.95716
692.6	0.95713
692.8	0.95743
693.0	0.95753
693.2	0.95755
693.4	0.95742
693.6	0.95771
693.8	0.95756
694.0	0.95761
694.2	0.95814
694.4	0.95794
694.6	0.95831
694.8	0.95819
695.0	0.95858
695.2	0.9582
695.4	0.95822
695.6	0.95809
695.8	0.95801
696.0	0.95838
696.2	0.95872
696.4	0.95876
696.6	0.959
696.8	0.95914
697.0	0.95921
697.2	0.95887
697.4	0.95898
697.6	0.95905
697.8	0.95913
698.0	0.95929
698.2	0.95953
698.4	0.95927
698.6	0.95954
698.8	0.95908
699.0	0.95919
699.2	0.95933
699.4	0.9591
699.6	0.95925
699.8	0.95954
700.0	0.95882
700.2	0.95921
700.4	0.95915
700.6	0.95929
700.8	0.95913
701.0	0.95858
701.2	0.95912
701.4	0.95854
701.6	0.95848
701.8	0.95835
702.0	0.95835
702.2	0.95798
702.4	0.95802
702.6	0.95791
702.8	0.95762
703.0	0.95745
703.2	0.95738
703.4	0.95739
703.6	0.95732
703.8	0.95696
704.0	0.95672
704.2	0.95689
704.4	0.95628
704.6	0.95641
704.8	0.95619
705.0	0.95585
705.2	0.95595
705.4	0.95604
705.6	0.95563
705.8	0.95521
706.0	0.95512
706.2	0.95517
706.4	0.95483
706.6	0.95491
706.8	0.95466
707.0	0.95453
707.2	0.9543
707.4	0.95423
707.6	0.95415
707.8	0.9545
708.0	0.95391
708.2	0.95362
708.4	0.95397
708.6	0.95364
708.8	0.9545
709.0	0.95393
709.2	0.95352
709.4	0.95387
709.6	0.95346
709.8	0.95379
710.0	0.95359
710.2	0.95392
710.4	0.95354
710.6	0.9537
710.8	0.95377
711.0	0.95396
711.2	0.95421
711.4	0.95403
711.6	0.95416
711.8	0.95427
712.0	0.95421
712.2	0.95436
712.4	0.95429
712.6	0.95498
712.8	0.95496
713.0	0.95479
713.2	0.95501
713.4	0.95519
713.6	0.95505
713.8	0.95556
714.0	0.95564
714.2	0.95573
714.4	0.95615
714.6	0.95642
714.8	0.95648
715.0	0.95661
715.2	0.9568
715.4	0.95698
715.6	0.95731
715.8	0.95771
716.0	0.95803
716.2	0.9579
716.4	0.95837
716.6	0.95819
716.8	0.95821
717.0	0.95907
717.2	0.95891
717.4	0.95931
717.6	0.9594
717.8	0.95951
718.0	0.95965
718.2	0.95982
718.4	0.96035
718.6	0.96021
718.8	0.96023
719.0	0.9603
719.2	0.96037
719.4	0.96084
719.6	0.9607
719.8	0.9607
720.0	0.96087
720.2	0.96108
720.4	0.9612
720.6	0.96113
720.8	0.96103
721.0	0.96138
721.2	0.96098
721.4	0.96155
721.6	0.9614
721.8	0.96121
722.0	0.96102
722.2	0.9607
722.4	0.96068
722.6	0.96077
722.8	0.96074
723.0	0.9607
723.2	0.96029
723.4	0.96005
723.6	0.96008
723.8	0.95993
724.0	0.95954
724.2	0.95923
724.4	0.95906
724.6	0.9588
724.8	0.95851
725.0	0.95833
725.2	0.95784
725.4	0.95777
725.6	0.95721
725.8	0.95671
726.0	0.9569
726.2	0.95645
726.4	0.956
726.6	0.95579
726.8	0.95541
727.0	0.95478
727.2	0.95442
727.4	0.95399
727.6	0.95371
727.8	0.95265
728.0	0.95244
728.2	0.95178
728.4	0.95148
728.6	0.95096
728.8	0.95034
729.0	0.94997
729.2	0.94917
729.4	0.94826
729.6	0.94799
729.8	0.9472
730.0	0.94662
730.2	0.94602
730.4	0.94541
730.6	0.94495
730.8	0.94403
731.0	0.94329
731.2	0.94268
731.4	0.94172
731.6	0.94118
731.8	0.93996
732.0	0.93939
732.2	0.93856
732.4	0.93777
732.6	0.93656
732.8	0.93605
733.0	0.93504
733.2	0.93396
733.4	0.93313
733.6	0.93174
733.8	0.93104
734.0	0.93
734.2	0.92904
734.4	0.92792
734.6	0.92679
734.8	0.92556
735.0	0.92505
735.2	0.92319
735.4	0.92199
735.6	0.92054
735.8	0.91929
736.0	0.91754
736.2	0.91669
736.4	0.91528
736.6	0.91373
736.8	0.91218
737.0	0.91091
737.2	0.90905
737.4	0.90738
737.6	0.9057
737.8	0.9039
738.0	0.90223
738.2	0.90047
738.4	0.89852
738.6	0.89712
738.8	0.8953
739.0	0.89275
739.2	0.89115
739.4	0.8892
739.6	0.8869
739.8	0.88488
740.0	0.883
740.2	0.88116
740.4	0.8787
740.6	0.87687
740.8	0.87421
741.0	0.87179
741.2	0.86943
741.4	0.867
741.6	0.86467
741.8	0.86234
742.0	0.8598
742.2	0.8569
742.4	0.85465
742.6	0.85198
742.8	0.84906
743.0	0.84683
743.2	0.844
743.4	0.84124
743.6	0.83825
743.8	0.83582
744.0	0.83296
744.2	0.83
744.4	0.82697
744.6	0.82417
744.8	0.82125
745.0	0.81825
745.2	0.81529
745.4	0.81238
745.6	0.80962
745.8	0.80653
746.0	0.80372
746.2	0.80066
746.4	0.79746
746.6	0.79429
746.8	0.79154
747.0	0.78815
747.2	0.78548
747.4	0.78262
747.6	0.77939
747.8	0.77635
748.0	0.77331
748.2	0.7704
748.4	0.76741
748.6	0.76434
748.8	0.76155
749.0	0.75835
749.2	0.75519
749.4	0.7524
749.6	0.74968
749.8	0.74661
750.0	0.74452
750.2	0.74198
750.4	0.73973
750.6	0.737
750.8	0.73412
751.0	0.73112
751.2	0.72825
751.4	0.72557
751.6	0.72298
751.8	0.72024
752.0	0.71778
752.2	0.71471
752.4	0.71226
752.6	0.70994
752.8	0.70742
753.0	0.70486
753.2	0.70283
753.4	0.70043
753.6	0.69798
753.8	0.69583
754.0	0.69372
754.2	0.69128
754.4	0.68939
754.6	0.68692
754.8	0.68508
755.0	0.68343
755.2	0.68118
755.4	0.67911
755.6	0.67715
755.8	0.67539
756.0	0.67381
756.2	0.67212
756.4	0.67043
756.6	0.66859
756.8	0.66717
757.0	0.66549
757.2	0.66412
757.4	0.66277
757.6	0.66168
757.8	0.66024
758.0	0.65891
758.2	0.65764
758.4	0.65593
758.6	0.65513
758.8	0.65406
759.0	0.65317
759.2	0.65217
759.4	0.65105
759.6	0.65043
759.8	0.64973
760.0	0.64894
760.2	0.64832
760.4	0.64754
760.6	0.6469
760.8	0.64667
761.0	0.64613
761.2	0.64555
761.4	0.64515
761.6	0.64473
761.8	0.64481
762.0	0.64424
762.2	0.64411
762.4	0.64369
762.6	0.64385
762.8	0.64331
763.0	0.64377
763.2	0.64351
763.4	0.64402
763.6	0.64353
763.8	0.64429
764.0	0.6443
764.2	0.64527
764.4	0.64488
764.6	0.64604
764.8	0.64641
765.0	0.64691
765.2	0.64728
765.4	0.64772
765.6	0.64917
765.8	0.64936
766.0	0.65015
766.2	0.65107
766.4	0.65218
766.6	0.65255
766.8	0.65406
767.0	0.65499
767.2	0.65635
767.4	0.6573
767.6	0.65835
767.8	0.65974
768.0	0.66119
768.2	0.66239
768.4	0.66343
768.6	0.66539
768.8	0.66652
769.0	0.66827
769.2	0.66991
769.4	0.6717
769.6	0.67319
769.8	0.67508
770.0	0.67681
770.2	0.67844
770.4	0.68037
770.6	0.68216
770.8	0.68412
771.0	0.68606
771.2	0.68843
771.4	0.69061
771.6	0.69282
771.8	0.69471
772.0	0.697
772.2	0.69912
772.4	0.70211
772.6	0.70454
772.8	0.70709
773.0	0.70944
773.2	0.71218
773.4	0.71508
773.6	0.71743
773.8	0.71995
774.0	0.72277
774.2	0.72576
774.4	0.72844
774.6	0.73217
774.8	0.73488
775.0	0.73729
775.2	0.74052
775.4	0.74356
775.6	0.74665
775.8	0.7498
776.0	0.75354
776.2	0.75658
776.4	0.76012
776.6	0.76334
776.8	0.76706
777.0	0.77063
777.2	0.77375
777.4	0.77689
777.6	0.78097
777.8	0.78458
778.0	0.78788
778.2	0.79158
778.4	0.79551
778.6	0.79924
778.8	0.80333
779.0	0.80694
779.2	0.81022
779.4	0.81431
779.6	0.81833
779.8	0.82235
780.0	0.82484
780.2	0.82767
780.4	0.83166
780.6	0.83555
780.8	0.83942
781.0	0.84322
781.2	0.84718
781.4	0.85116
781.6	0.85508
781.8	0.85893
782.0	0.86241
782.2	0.86653
782.4	0.87052
782.6	0.87442
782.8	0.87813
783.0	0.88179
783.2	0.88549
783.4	0.88945
783.6	0.89308
783.8	0.8969
784.0	0.89971
784.2	0.9037
784.4	0.90716
784.6	0.91084
784.8	0.91385
785.0	0.91707
785.2	0.92001
785.4	0.92301
785.6	0.92599
785.8	0.92873
786.0	0.93205
786.2	0.93444
786.4	0.93772
786.6	0.93973
786.8	0.94255
787.0	0.94469
787.2	0.94648
787.4	0.94908
787.6	0.95075
787.8	0.95263
788.0	0.9544
788.2	0.95612
788.4	0.9569
788.6	0.95847
788.8	0.95965
789.0	0.96066
789.2	0.96139
789.4	0.96218
789.6	0.96245
789.8	0.96258
790.0	0.96291
790.2	0.96269
790.4	0.96216
790.6	0.96243
790.8	0.96193
791.0	0.96105
791.2	0.96011
791.4	0.9593
791.6	0.95785
791.8	0.95623
792.0	0.95515
792.2	0.95356
792.4	0.95121
792.6	0.94974
792.8	0.94749
793.0	0.94505
793.2	0.94272
793.4	0.93984
793.6	0.93715
793.8	0.93417
794.0	0.93107
794.2	0.92831
794.4	0.92475
794.6	0.92149
794.8	0.91789
795.0	0.91413
795.2	0.90797
795.4	0.90186
795.6	0.89578
795.8	0.89079
796.0	0.88659
796.2	0.88265
796.4	0.87821
796.6	0.87417
796.8	0.86994
797.0	0.8651
797.2	0.86051
797.4	0.85603
797.6	0.85154
797.8	0.84673
798.0	0.84224
798.2	0.83737
798.4	0.83276
798.6	0.82801
798.8	0.82313
799.0	0.81838
799.2	0.8136
799.4	0.809
799.6	0.80408
799.8	0.79937
800.0	0.79476
800.2	0.79021
800.4	0.78511
800.6	0.78041
800.8	0.77595
801.0	0.77148
801.2	0.76677
801.4	0.76206
801.6	0.75764
801.8	0.75334
802.0	0.74902
802.2	0.74469
802.4	0.74021
802.6	0.73612
802.8	0.73176
803.0	0.72799
803.2	0.72389
803.4	0.71961
803.6	0.71593
803.8	0.71202
804.0	0.70803
804.2	0.70443
804.4	0.70094
804.6	0.69752
804.8	0.69415
805.0	0.69075
805.2	0.6878
805.4	0.68485
805.6	0.68192
805.8	0.67869
806.0	0.67562
806.2	0.67261
806.4	0.6695
806.6	0.66678
806.8	0.66443
807.0	0.66174
807.2	0.659
807.4	0.65668
807.6	0.65453
807.8	0.65259
808.0	0.65004
808.2	0.64787
808.4	0.64602
808.6	0.64424
808.8	0.64215
809.0	0.64098
809.2	0.63898
809.4	0.6379
809.6	0.63644
809.8	0.63484
810.0	0.63382
810.2	0.6331
810.4	0.63164
810.6	0.63053
810.8	0.62966
811.0	0.62887
811.2	0.6284
811.4	0.62758
811.6	0.62705
811.8	0.62658
812.0	0.62651
812.2	0.62621
812.4	0.6261
812.6	0.62595
812.8	0.62585
813.0	0.62623
813.2	0.6263
813.4	0.6265
813.6	0.62686
813.8	0.62749
814.0	0.62802
814.2	0.62861
814.4	0.62945
814.6	0.63036
814.8	0.63131
815.0	0.63225
815.2	0.63368
815.4	0.63511
815.6	0.63654
815.8	0.63788
816.0	0.63928
816.2	0.64077
816.4	0.64242
816.6	0.64406
816.8	0.64604
817.0	0.64787
817.2	0.64998
817.4	0.65206
817.6	0.65411
817.8	0.65643
818.0	0.65884
818.2	0.66095
818.4	0.66337
818.6	0.66607
818.8	0.66877
819.0	0.67129
819.2	0.67431
819.4	0.67706
819.6	0.68028
819.8	0.68322
820.0	0.68672
820.2	0.68973
820.4	0.69283
820.6	0.69599
820.8	0.69947
821.0	0.70289
821.2	0.70649
821.4	0.71014
821.6	0.71348
821.8	0.71736
822.0	0.72131
822.2	0.72525
822.4	0.72887
822.6	0.73319
822.8	0.73681
823.0	0.74087
823.2	0.74491
823.4	0.74913
823.6	0.753
823.8	0.75728
824.0	0.76141
824.2	0.7661
824.4	0.7704
824.6	0.77466
824.8	0.77872
825.0	0.78324
825.2	0.78778
825.4	0.79235
825.6	0.79695
825.8	0.80126
826.0	0.80547
826.2	0.80981
826.4	0.8145
826.6	0.81881
826.8	0.823
827.0	0.82714
827.2	0.83145
827.4	0.83543
827.6	0.83949
827.8	0.84379
828.0	0.84734
828.2	0.85138
828.4	0.85518
828.6	0.85928
828.8	0.86322
829.0	0.86676
829.2	0.87057
829.4	0.87383
829.6	0.87733
829.8	0.88054
830.0	0.88361
830.2	0.88689
830.4	0.88981
830.6	0.89267
830.8	0.89579
831.0	0.89775
831.2	0.90099
831.4	0.90358
831.6	0.90556
831.8	0.90754
832.0	0.90966
832.2	0.91179
832.4	0.91372
832.6	0.91495
832.8	0.91672
833.0	0.91859
833.2	0.92022
833.4	0.92121
833.6	0.92191
833.8	0.92248
834.0	0.92331
834.2	0.9237
834.4	0.92482
834.6	0.92535
834.8	0.92535
835.0	0.9254
835.2	0.92566
835.4	0.92592
835.6	0.92619
835.8	0.92593
836.0	0.92552
836.2	0.9248
836.4	0.92435
836.6	0.92351
836.8	0.92289
837.0	0.92192
837.2	0.92084
837.4	0.91981
837.6	0.91904
837.8	0.91776
838.0	0.91636
838.2	0.91496
838.4	0.91358
838.6	0.91225
838.8	0.91072
839.0	0.90918
839.2	0.90758
839.4	0.90605
839.6	0.90433
839.8	0.90285
840.0	0.90096
840.2	0.89953
840.4	0.89741
840.6	0.89537
840.8	0.894
841.0	0.89195
841.2	0.89021
841.4	0.88854
841.6	0.88687
841.8	0.88503
842.0	0.88311
842.2	0.88131
842.4	0.87993
842.6	0.87806
842.8	0.87631
843.0	0.8746
843.2	0.87296
843.4	0.87144
843.6	0.86999
843.8	0.86859
844.0	0.86705
844.2	0.86561
844.4	0.86405
844.6	0.86301
844.8	0.86197
845.0	0.86067
845.2	0.85984
845.4	0.859
845.6	0.85817
845.8	0.85707
846.0	0.85631
846.2	0.85547
846.4	0.8546
846.6	0.85393
846.8	0.85331
847.0	0.8526
847.2	0.85233
847.4	0.85162
847.6	0.85166
847.8	0.85121
848.0	0.85137
848.2	0.85103
848.4	0.85103
848.6	0.85119
848.8	0.85117
849.0	0.85099
849.2	0.85151
849.4	0.85187
849.6	0.85258
849.8	0.85239
850.0	0.85315
850.2	0.85379
850.4	0.85489
850.6	0.85562
850.8	0.85603
851.0	0.85653
851.2	0.85774
851.4	0.85858
851.6	0.86023
851.8	0.8608
852.0	0.8624
852.2	0.86328
852.4	0.86439
852.6	0.86611
852.8	0.8676
853.0	0.86876
853.2	0.87037
853.4	0.87201
853.6	0.87382
853.8	0.87507
854.0	0.87708
854.2	0.87915
854.4	0.88051
854.6	0.88224
854.8	0.88393
855.0	0.88624
855.2	0.88865
855.4	0.89106
855.6	0.89348
855.8	0.89571
856.0	0.89775
856.2	0.90006
856.4	0.902
856.6	0.90374
856.8	0.90587
857.0	0.90787
857.2	0.91027
857.4	0.91244
857.6	0.91421
857.8	0.91631
858.0	0.918
858.2	0.92032
858.4	0.92202
858.6	0.92406
858.8	0.92566
859.0	0.92772
859.2	0.92937
859.4	0.93097
859.6	0.93267
859.8	0.93412
860.0	0.93594
860.2	0.9376
860.4	0.93894
860.6	0.94011
860.8	0.94128
861.0	0.94273
861.2	0.94382
861.4	0.94475
861.6	0.94535
861.8	0.94616
862.0	0.94657
862.2	0.94724
862.4	0.94806
862.6	0.94861
862.8	0.94864
863.0	0.94906
863.2	0.94876
863.4	0.94874
863.6	0.94814
863.8	0.94771
864.0	0.94727
864.2	0.94676
864.4	0.94614
864.6	0.94532
864.8	0.94439
865.0	0.94326
865.2	0.9418
865.4	0.94034
865.6	0.93888
865.8	0.93724
866.0	0.93579
866.2	0.93351
866.4	0.93136
866.6	0.92915
866.8	0.92686
867.0	0.92442
867.2	0.92194
867.4	0.91963
867.6	0.9164
867.8	0.91346
868.0	0.91025
868.2	0.90724
868.4	0.90409
868.6	0.90052
868.8	0.89742
869.0	0.89419
869.2	0.89083
869.4	0.88691
869.6	0.88331
869.8	0.87931
870.0	0.87567
870.2	0.87209
870.4	0.86788
870.6	0.86377
870.8	0.85992
871.0	0.85594
871.2	0.85204
871.4	0.84777
871.6	0.84343
871.8	0.83877
872.0	0.8347
872.2	0.83026
872.4	0.8258
872.6	0.82191
872.8	0.81761
873.0	0.81355
873.2	0.80915
873.4	0.80505
873.6	0.80058
873.8	0.79644
874.0	0.79184
874.2	0.78758
874.4	0.78307
874.6	0.77929
874.8	0.7751
875.0	0.77096
875.2	0.76687
875.4	0.76279
875.6	0.75875
875.8	0.75401
876.0	0.74998
876.2	0.74605
876.4	0.74243
876.6	0.73843
876.8	0.7349
877.0	0.73119
877.2	0.72801
877.4	0.72456
877.6	0.72076
877.8	0.71728
878.0	0.71393
878.2	0.71069
878.4	0.7073
878.6	0.70403
878.8	0.70103
879.0	0.69778
879.2	0.69465
879.4	0.69196
879.6	0.68917
879.8	0.6863
880.0	0.68368
880.2	0.68122
880.4	0.67847
880.6	0.676
880.8	0.67372
881.0	0.67155
881.2	0.6689
881.4	0.66698
881.6	0.66456
881.8	0.66247
882.0	0.66078
882.2	0.65849
882.4	0.65676
882.6	0.65493
882.8	0.65324
883.0	0.65166
883.2	0.65049
883.4	0.64894
883.6	0.64763
883.8	0.6458
884.0	0.6446
884.2	0.64351
884.4	0.64271
884.6	0.6419
884.8	0.64135
885.0	0.64025
885.2	0.63979
885.4	0.63934
885.6	0.63888
885.8	0.63821
886.0	0.63774
886.2	0.63754
886.4	0.63736
886.6	0.63717
886.8	0.63703
887.0	0.63695
887.2	0.63705
887.4	0.63696
887.6	0.63729
887.8	0.63745
888.0	0.63821
888.2	0.63834
888.4	0.63926
888.6	0.6396
888.8	0.64045
889.0	0.64094
889.2	0.64191
889.4	0.64266
889.6	0.64361
889.8	0.64471
890.0	0.64567
890.2	0.64734
890.4	0.64818
890.6	0.64977
890.8	0.65092
891.0	0.65243
891.2	0.65362
891.4	0.65547
891.6	0.65714
891.8	0.6589
892.0	0.66064
892.2	0.66264
892.4	0.66422
892.6	0.66663
892.8	0.66865
893.0	0.67048
893.2	0.6729
893.4	0.67496
893.6	0.67762
893.8	0.67998
894.0	0.68288
894.2	0.68535
894.4	0.68804
894.6	0.69075
894.8	0.69337
895.0	0.69623
895.2	0.69958
895.4	0.70295
895.6	0.70633
895.8	0.7099
896.0	0.71315
896.2	0.71627
896.4	0.71945
896.6	0.72309
896.8	0.72617
897.0	0.72972
897.2	0.73296
897.4	0.73658
897.6	0.73981
897.8	0.74325
898.0	0.74721
898.2	0.7506
898.4	0.7548
898.6	0.75802
898.8	0.76194
899.0	0.76561
899.2	0.7694
899.4	0.77325
899.6	0.77706
899.8	0.78074
900.0	0.78504
900.2	0.78932
900.4	0.79291
900.6	0.79664
900.8	0.80045
901.0	0.80441
901.2	0.80859
901.4	0.81217
901.6	0.81641
901.8	0.82011
902.0	0.82405
902.2	0.82783
902.4	0.83168
902.6	0.83531
902.8	0.83911
903.0	0.84298
903.2	0.84661
903.4	0.8503
903.6	0.85422
903.8	0.85776
904.0	0.86148
904.2	0.86503
904.4	0.86852
904.6	0.872
904.8	0.87536
905.0	0.87875
905.2	0.88239
905.4	0.88605
905.6	0.88972
905.8	0.8929
906.0	0.89576
906.2	0.89835
906.4	0.90147
906.6	0.90379
906.8	0.90672
907.0	0.90915
907.2	0.91153
907.4	0.9138
907.6	0.91594
907.8	0.9182
908.0	0.91997
908.2	0.9222
908.4	0.92399
908.6	0.92579
908.8	0.92737
909.0	0.9291
909.2	0.93027
909.4	0.93172
909.6	0.93309
909.8	0.93409
910.0	0.93512
910.2	0.9363
910.4	0.93649
910.6	0.93717
910.8	0.93761
911.0	0.9379
911.2	0.9385
911.4	0.93859
911.6	0.93846
911.8	0.9388
912.0	0.93841
912.2	0.93846
912.4	0.93795
912.6	0.9375
912.8	0.93711
913.0	0.93678
913.2	0.93619
913.4	0.93527
913.6	0.93469
913.8	0.93379
914.0	0.93298
914.2	0.9321
914.4	0.93056
914.6	0.92966
914.8	0.92829
915.0	0.92689
915.2	0.92569
915.4	0.92448
915.6	0.92328
915.8	0.92235
916.0	0.92081
916.2	0.9193
916.4	0.91768
916.6	0.91639
916.8	0.91456
917.0	0.91296
917.2	0.91115
917.4	0.90923
917.6	0.90743
917.8	0.90555
918.0	0.90364
918.2	0.9019
918.4	0.89997
918.6	0.89852
918.8	0.89682
919.0	0.89464
919.2	0.8925
919.4	0.89093
919.6	0.8891
919.8	0.88734
920.0	0.88567
920.2	0.88388
920.4	0.88205
920.6	0.88008
920.8	0.87816
921.0	0.8763
921.2	0.87472
921.4	0.87366
921.6	0.87182
921.8	0.86971
922.0	0.86879
922.2	0.86686
922.4	0.86484
922.6	0.86341
922.8	0.86208
923.0	0.86101
923.2	0.85982
923.4	0.85839
923.6	0.85713
923.8	0.85637
924.0	0.85478
924.2	0.85373
924.4	0.85254
924.6	0.85172
924.8	0.85074
925.0	0.84935
925.2	0.84903
925.4	0.84871
925.6	0.84838
925.8	0.84687
926.0	0.84672
926.2	0.84626
926.4	0.84567
926.6	0.84538
926.8	0.84468
927.0	0.84439
927.2	0.84421
927.4	0.84345
927.6	0.8433
927.8	0.84332
928.0	0.84307
928.2	0.84315
928.4	0.84371
928.6	0.84301
928.8	0.84329
929.0	0.84312
929.2	0.84348
929.4	0.84407
929.6	0.84457
929.8	0.84481
930.0	0.84537
930.2	0.84637
930.4	0.84654
930.6	0.84792
930.8	0.84703
931.0	0.84793
931.2	0.84946
931.4	0.84996
931.6	0.84954
931.8	0.85164
932.0	0.85356
932.2	0.85461
932.4	0.85448
932.6	0.85586
932.8	0.85699
933.0	0.85975
933.2	0.85866
933.4	0.86055
933.6	0.86372
933.8	0.86373
934.0	0.86785
934.2	0.86733
934.4	0.86668
934.6	0.86969
934.8	0.87214
935.0	0.87527
935.2	0.87612
935.4	0.87697
935.6	0.87782
935.8	0.8798
936.0	0.88237
936.2	0.88523
936.4	0.88589
936.6	0.88778
936.8	0.89058
937.0	0.89092
937.2	0.89322
937.4	0.89642
937.6	0.89791
937.8	0.90075
938.0	0.9002
938.2	0.90319
938.4	0.90597
938.6	0.90677
938.8	0.90931
939.0	0.91156
939.2	0.91354
939.4	0.91531
939.6	0.91691
939.8	0.91858
940.0	0.92074
940.2	0.92318
940.4	0.92486
940.6	0.92683
940.8	0.92863
941.0	0.92975
941.2	0.93174
941.4	0.93382
941.6	0.93459
941.8	0.93659
942.0	0.93838
942.2	0.93957
942.4	0.94289
942.6	0.94192
942.8	0.94284
943.0	0.94487
943.2	0.94693
943.4	0.94873
943.6	0.94868
943.8	0.95171
944.0	0.94927
944.2	0.95113
944.4	0.95219
944.6	0.95345
944.8	0.95402
945.0	0.95465
945.2	0.95527
945.4	0.95588
945.6	0.9565
945.8	0.95649
946.0	0.95656
946.2	0.9569
946.4	0.95686
946.6	0.95667
946.8	0.95638
947.0	0.95605
947.2	0.95584
947.4	0.95545
947.6	0.95501
947.8	0.95458
948.0	0.95308
948.2	0.95205
948.4	0.95144
948.6	0.9504
948.8	0.9491
949.0	0.9478
949.2	0.94647
949.4	0.94462
949.6	0.94296
949.8	0.94203
950.0	0.9395
950.2	0.93809
950.4	0.93627
950.6	0.93427
950.8	0.93184
951.0	0.92967
951.2	0.92726
951.4	0.92537
951.6	0.92243
951.8	0.92021
952.0	0.91773
952.2	0.91458
952.4	0.91156
952.6	0.90923
952.8	0.90639
953.0	0.90339
953.2	0.90039
953.4	0.89738
953.6	0.89382
953.8	0.89094
954.0	0.88775
954.2	0.88467
954.4	0.88066
954.6	0.87706
954.8	0.87419
955.0	0.87141
955.2	0.86808
955.4	0.86476
955.6	0.86145
955.8	0.85824
956.0	0.85432
956.2	0.85045
956.4	0.84696
956.6	0.84373
956.8	0.84015
957.0	0.83607
957.2	0.83174
957.4	0.82894
957.6	0.82542
957.8	0.82141
958.0	0.8178
958.2	0.81426
958.4	0.8106
958.6	0.80635
958.8	0.80317
959.0	0.79931
959.2	0.79573
959.4	0.79184
959.6	0.78856
959.8	0.78535
960.0	0.78126
960.2	0.77708
960.4	0.77414
960.6	0.77088
960.8	0.76725
961.0	0.76351
961.2	0.76011
961.4	0.75689
961.6	0.75356
961.8	0.75031
962.0	0.74681
962.2	0.74357
962.4	0.74025
962.6	0.73722
962.8	0.73445
963.0	0.73092
963.2	0.7275
963.4	0.72459
963.6	0.72235
963.8	0.71895
964.0	0.71532
964.2	0.71244
964.4	0.71035
964.6	0.70813
964.8	0.70443
965.0	0.70143
965.2	0.69916
965.4	0.6969
965.6	0.69465
965.8	0.6919
966.0	0.6899
966.2	0.6881
966.4	0.68509
966.6	0.68242
966.8	0.6802
967.0	0.67873
967.2	0.67672
967.4	0.6743
967.6	0.67174
967.8	0.67014
968.0	0.66889
968.2	0.66619
968.4	0.66374
968.6	0.66263
968.8	0.66179
969.0	0.65961
969.2	0.65739
969.4	0.65592
969.6	0.65525
969.8	0.65401
970.0	0.6518
970.2	0.65028
970.4	0.64938
970.6	0.64909
970.8	0.64717
971.0	0.64526
971.2	0.64492
971.4	0.64443
971.6	0.64318
971.8	0.64147
972.0	0.64064
972.2	0.64033
972.4	0.64004
972.6	0.63865
972.8	0.63791
973.0	0.6379
973.2	0.63782
973.4	0.63699
973.6	0.63594
973.8	0.63587
974.0	0.63612
974.2	0.63567
974.4	0.63497
974.6	0.63463
974.8	0.63461
975.0	0.63489
975.2	0.63512
975.4	0.63535
975.6	0.63558
975.8	0.63445
976.0	0.63488
976.2	0.6363
976.4	0.636
976.6	0.63565
976.8	0.63586
977.0	0.63703
977.2	0.63743
977.4	0.63772
977.6	0.63816
977.8	0.6393
978.0	0.63983
978.2	0.64044
978.4	0.64139
978.6	0.64193
978.8	0.64264
979.0	0.64383
979.2	0.64477
979.4	0.64622
979.6	0.64648
979.8	0.64731
980.0	0.64965
980.2	0.6514
980.4	0.65173
980.6	0.65238
980.8	0.6543
981.0	0.65625
981.2	0.65757
981.4	0.65844
981.6	0.66008
981.8	0.66228
982.0	0.66378
982.2	0.66531
982.4	0.6669
982.6	0.66896
982.8	0.67061
983.0	0.67253
983.2	0.6752
983.4	0.67668
983.6	0.67783
983.8	0.68036
984.0	0.68328
984.2	0.68516
984.4	0.68649
984.6	0.68868
984.8	0.69152
985.0	0.69435
985.2	0.69602
985.4	0.69769
985.6	0.69937
985.8	0.70332
986.0	0.70549
986.2	0.70713
986.4	0.70957
986.6	0.71274
986.8	0.71521
987.0	0.71778
987.2	0.72056
987.4	0.72303
987.6	0.72603
987.8	0.7291
988.0	0.73275
988.2	0.7347
988.4	0.73659
988.6	0.73996
988.8	0.74371
989.0	0.74635
989.2	0.74907
989.4	0.75229
989.6	0.75504
989.8	0.75835
990.0	0.7617
990.2	0.7651
990.4	0.7677
990.6	0.77007
990.8	0.77368
991.0	0.77749
991.2	0.78065
991.4	0.78389
991.6	0.78666
991.8	0.7896
992.0	0.79259
992.2	0.79666
992.4	0.80002
992.6	0.80211
992.8	0.8051
993.0	0.80894
993.2	0.81225
993.4	0.81512
993.6	0.81875
993.8	0.82194
994.0	0.8238
994.2	0.82759
994.4	0.83165
994.6	0.83485
994.8	0.8374
995.0	0.84019
995.2	0.84171
995.4	0.84323
995.6	0.84475
995.8	0.84595
996.0	0.84953
996.2	0.85252
996.4	0.85558
996.6	0.85803
996.8	0.8609
997.0	0.86386
997.2	0.86638
997.4	0.86927
997.6	0.87277
997.8	0.87477
998.0	0.87683
998.2	0.87975
998.4	0.88288
998.6	0.88481
998.8	0.88763
999.0	0.89011
999.2	0.89226
999.4	0.89474
999.6	0.89771
999.8	0.89951
1000.0	0.90224
1000.2	0.9048
1000.4	0.90631
1000.6	0.90777
1000.8	0.90965
1001.0	0.91171
1001.2	0.91326
1001.4	0.91476
1001.6	0.91676
1001.8	0.91807
1002.0	0.91962
1002.2	0.92122
1002.4	0.92287
1002.6	0.92358
1002.8	0.92522
1003.0	0.92638
1003.2	0.9272
1003.4	0.92801
1003.6	0.92943
1003.8	0.93031
1004.0	0.93087
1004.2	0.93133
1004.4	0.93189
1004.6	0.9327
1004.8	0.93337
1005.0	0.93422
1005.2	0.94318
1005.4	0.94347
1005.6	0.94375
1005.8	0.94451
1006.0	0.94471
1006.2	0.94509
1006.4	0.94514
1006.6	0.94535
1006.8	0.94526
1007.0	0.94548
1007.2	0.94562
1007.4	0.94441
1007.6	0.94483
1007.8	0.94451
1008.0	0.94371
1008.2	0.9437
1008.4	0.94338
1008.6	0.94255
1008.8	0.94218
1009.0	0.94134
1009.2	0.94092
1009.4	0.93979
1009.6	0.93942
1009.8	0.93892
1010.0	0.93757
1010.2	0.93714
1010.4	0.93588
1010.6	0.93503
1010.8	0.93395
1011.0	0.93326
1011.2	0.93233
1011.4	0.93109
1011.6	0.92971
1011.8	0.92852
1012.0	0.92689
1012.2	0.92608
1012.4	0.92483
1012.6	0.92398
1012.8	0.92314
1013.0	0.92152
1013.2	0.92038
1013.4	0.91916
1013.6	0.91766
1013.8	0.91616
1014.0	0.91495
1014.2	0.91401
1014.4	0.9123
1014.6	0.9112
1014.8	0.90942
1015.0	0.90794
1015.2	0.90669
1015.4	0.9054
1015.6	0.90406
1015.8	0.90333
1016.0	0.901
1016.2	0.90003
1016.4	0.89859
1016.6	0.8969
1016.8	0.89477
1017.0	0.89462
1017.2	0.89265
1017.4	0.89174
1017.6	0.89125
1017.8	0.8891
1018.0	0.88738
1018.2	0.88614
1018.4	0.88446
1018.6	0.88344
1018.8	0.88261
1019.0	0.88146
1019.2	0.87986
1019.4	0.87887
1019.6	0.87721
1019.8	0.87581
1020.0	0.87513
1020.2	0.87361
1020.4	0.87295
1020.6	0.87234
1020.8	0.87066
1021.0	0.87008
1021.2	0.86801
1021.4	0.86706
1021.6	0.86596
1021.8	0.8653
1022.0	0.86394
1022.2	0.86324
1022.4	0.8622
1022.6	0.86174
1022.8	0.86095
1023.0	0.8596
1023.2	0.85866
1023.4	0.85827
1023.6	0.857
1023.8	0.85682
1024.0	0.85584
1024.2	0.85558
1024.4	0.8554
1024.6	0.85401
1024.8	0.85372
1025.0	0.852
1025.2	0.85133
1025.4	0.85016
1025.6	0.84945
1025.8	0.84928
1026.0	0.84829
1026.2	0.84831
1026.4	0.84863
1026.6	0.84705
1026.8	0.84803
1027.0	0.84696
1027.2	0.84647
1027.4	0.84606
1027.6	0.84554
1027.8	0.84555
1028.0	0.84575
1028.2	0.84524
1028.4	0.84622
1028.6	0.84601
1028.8	0.84512
1029.0	0.84569
1029.2	0.84467
1029.4	0.84401
1029.6	0.84461
1029.8	0.84454
1030.0	0.84469
1030.2	0.8452
1030.4	0.84539
1030.6	0.84618
1030.8	0.84694
1031.0	0.84583
1031.2	0.84598
1031.4	0.84557
1031.6	0.84579
1031.8	0.84654
1032.0	0.84622
1032.2	0.8467
1032.4	0.84787
1032.6	0.84812
1032.8	0.84888
1033.0	0.84884
1033.2	0.84969
1033.4	0.85072
1033.6	0.84983
1033.8	0.84974
1034.0	0.85053
1034.2	0.85075
1034.4	0.85154
1034.6	0.85209
1034.8	0.85202
1035.0	0.85423
1035.2	0.85365
1035.4	0.85443
1035.6	0.85438
1035.8	0.8548
1036.0	0.85626
1036.2	0.85557
1036.4	0.85591
1036.6	0.8567
1036.8	0.85689
1037.0	0.85857
1037.2	0.85893
1037.4	0.85936
1037.6	0.86031
1037.8	0.86078
1038.0	0.86126
1038.2	0.86196
1038.4	0.86195
1038.6	0.86301
1038.8	0.86294
1039.0	0.86298
1039.2	0.8643
1039.4	0.86545
1039.6	0.86635
1039.8	0.86727
1040.0	0.86754
1040.2	0.86748
1040.4	0.86833
1040.6	0.86882
1040.8	0.86994
1041.0	0.8693
1041.2	0.87016
1041.4	0.87112
1041.6	0.87139
1041.8	0.87181
1042.0	0.87178
1042.2	0.87278
1042.4	0.87379
1042.6	0.87427
1042.8	0.87442
1043.0	0.87447
1043.2	0.87476
1043.4	0.87579
1043.6	0.87521
1043.8	0.87617
1044.0	0.87526
1044.2	0.87626
1044.4	0.87641
1044.6	0.87649
1044.8	0.87753
1045.0	0.8769
1045.2	0.87628
1045.4	0.87545
1045.6	0.87527
1045.8	0.87593
1046.0	0.87603
1046.2	0.87547
1046.4	0.87494
1046.6	0.87624
1046.8	0.87609
1047.0	0.87674
1047.2	0.87725
1047.4	0.8768
1047.6	0.87665
1047.8	0.8763
1048.0	0.87732
1048.2	0.87629
1048.4	0.8751
1048.6	0.87629
1048.8	0.8756
1049.0	0.87495
1049.2	0.87376
1049.4	0.87349
1049.6	0.87325
1049.8	0.87307
1050.0	0.87286
1050.2	0.87193
1050.4	0.87313
1050.6	0.87183
1050.8	0.87129
1051.0	0.87139
1051.2	0.87058
1051.4	0.86924
1051.6	0.86889
1051.8	0.86908
1052.0	0.8681
1052.2	0.86798
1052.4	0.8666
1052.6	0.86502
1052.8	0.86362
1053.0	0.86261
1053.2	0.86146
1053.4	0.86169
1053.6	0.86078
1053.8	0.86028
1054.0	0.85943
1054.2	0.85914
1054.4	0.85784
1054.6	0.85677
1054.8	0.85655
1055.0	0.85534
1055.2	0.85503
1055.4	0.85376
1055.6	0.85216
1055.8	0.85103
1056.0	0.84916
1056.2	0.84771
1056.4	0.84739
1056.6	0.84568
1056.8	0.84481
1057.0	0.84386
1057.2	0.84252
1057.4	0.84016
1057.6	0.83919
1057.8	0.83777
1058.0	0.83713
1058.2	0.83508
1058.4	0.83533
1058.6	0.83364
1058.8	0.83213
1059.0	0.83111
1059.2	0.82963
1059.4	0.82839
1059.6	0.8274
1059.8	0.82595
1060.0	0.82536
1060.2	0.82402
1060.4	0.82327
1060.6	0.82132
1060.8	0.82042
1061.0	0.81875
1061.2	0.81809
1061.4	0.8152
1061.6	0.81388
1061.8	0.81391
1062.0	0.81055
1062.2	0.81005
1062.4	0.80849
1062.6	0.80698
1062.8	0.80509
1063.0	0.80487
1063.2	0.8033
1063.4	0.80206
1063.6	0.80078
1063.8	0.7983
1064.0	0.79821
1064.2	0.79693
1064.4	0.79645
1064.6	0.79432
1064.8	0.79344
1065.0	0.79082
1065.2	0.7866
1065.4	0.78594
1065.6	0.78362
1065.8	0.78397
1066.0	0.7828
1066.2	0.78113
1066.4	0.7803
1066.6	0.77874
1066.8	0.77846
1067.0	0.77718
1067.2	0.77722
1067.4	0.77462
1067.6	0.77537
1067.8	0.77422
1068.0	0.77165
1068.2	0.7713
1068.4	0.77019
1068.6	0.76969
1068.8	0.7695
1069.0	0.76952
1069.2	0.76737
1069.4	0.76719
1069.6	0.76526
1069.8	0.76479
1070.0	0.76402
1070.2	0.76346
1070.4	0.76227
1070.6	0.76218
1070.8	0.7613
1071.0	0.75949
1071.2	0.75917
1071.4	0.75854
1071.6	0.75905
1071.8	0.75733
1072.0	0.75627
1072.2	0.75591
1072.4	0.75511
1072.6	0.75504
1072.8	0.75375
1073.0	0.75361
1073.2	0.75279
1073.4	0.75252
1073.6	0.75131
1073.8	0.75075
1074.0	0.75006
1074.2	0.75074
1074.4	0.75042
1074.6	0.75073
1074.8	0.74929
1075.0	0.74945
1075.2	0.74822
1075.4	0.74787
1075.6	0.74874
1075.8	0.7474
1076.0	0.74838
1076.2	0.74694
1076.4	0.74825
1076.6	0.74699
1076.8	0.74789
1077.0	0.74657
1077.2	0.74812
1077.4	0.74703
1077.6	0.74724
1077.8	0.74792
1078.0	0.74848
1078.2	0.74768
1078.4	0.74844
1078.6	0.74783
1078.8	0.74891
1079.0	0.74759
1079.2	0.74833
1079.4	0.74904
1079.6	0.74905
1079.8	0.74987
1080.0	0.74909
1080.2	0.7508
1080.4	0.75041
1080.6	0.75234
1080.8	0.75148
1081.0	0.75208
1081.2	0.75288
1081.4	0.75246
1081.6	0.75242
1081.8	0.75457
1082.0	0.75478
1082.2	0.75593
1082.4	0.75546
1082.6	0.75708
1082.8	0.75713
1083.0	0.75808
1083.2	0.75873
1083.4	0.76041
1083.6	0.7597
1083.8	0.76231
1084.0	0.76224
1084.2	0.76365
1084.4	0.76309
1084.6	0.76463
1084.8	0.76414
1085.0	0.76706
1085.2	0.76851
1085.4	0.76902
1085.6	0.76999
1085.8	0.77182
1086.0	0.77141
1086.2	0.77156
1086.4	0.77487
1086.6	0.77424
1086.8	0.77533
1087.0	0.77533
1087.2	0.77789
1087.4	0.77801
1087.6	0.78054
1087.8	0.7812
1088.0	0.78227
1088.2	0.78274
1088.4	0.78486
1088.6	0.78577
1088.8	0.78863
1089.0	0.78666
1089.2	0.79174
1089.4	0.79176
1089.6	0.79302
1089.8	0.79229
1090.0	0.79445
1090.2	0.79497
1090.4	0.79853
1090.6	0.7996
1090.8	0.80199
1091.0	0.80232
1091.2	0.80249
1091.4	0.80491
1091.6	0.80726
1091.8	0.80818
1092.0	0.80962
1092.2	0.81155
1092.4	0.81267
1092.6	0.81473
1092.8	0.81447
1093.0	0.81693
1093.2	0.81749
1093.4	0.82018
1093.6	0.82249
1093.8	0.82441
1094.0	0.82636
1094.2	0.82665
1094.4	0.83063
1094.6	0.83211
1094.8	0.83484
1095.0	0.83461
1095.2	0.83778
1095.4	0.838
1095.6	0.84038
1095.8	0.84085
1096.0	0.84354
1096.2	0.84563
1096.4	0.84538
1096.6	0.84849
1096.8	0.84857
1097.0	0.85103
1097.2	0.85244
1097.4	0.85309
1097.6	0.85523
1097.8	0.85803
1098.0	0.85792
1098.2	0.85949
1098.4	0.86215
1098.6	0.8635
1098.8	0.86493
1099.0	0.86631
1099.2	0.86983
1099.4	0.86942
1099.6	0.87311
1099.8	0.87302
1100.0	0.87478
1100.2	0.87571
1100.4	0.87984
1100.6	0.87838
1100.8	0.88139
1101.0	0.88282
1101.2	0.88389
1101.4	0.88515
1101.6	0.88922
1101.8	0.89033
1102.0	0.89222
1102.2	0.89103
1102.4	0.89142
1102.6	0.89477
1102.8	0.89412
1103.0	0.89597
1103.2	0.89742
1103.4	0.89818
1103.6	0.8993
1103.8	0.90143
1104.0	0.90412
1104.2	0.90554
1104.4	0.90513
1104.6	0.90517
1104.8	0.90891
1105.0	0.91132
1105.2	0.90914
1105.4	0.91318
1105.6	0.91382
1105.8	0.91367
1106.0	0.91654
1106.2	0.91463
1106.4	0.91749
1106.6	0.917
1106.8	0.91801
1107.0	0.91887
1107.2	0.92027
1107.4	0.9207
1107.6	0.92251
1107.8	0.92072
1108.0	0.9226
1108.2	0.92352
1108.4	0.92572
1108.6	0.92492
1108.8	0.92771
1109.0	0.92672
1109.2	0.92755
1109.4	0.92826
1109.6	0.92898
1109.8	0.93052
1110.0	0.92957
1110.2	0.929
1110.4	0.93216
1110.6	0.9286
1110.8	0.93053
1111.0	0.93314
1111.2	0.93291
1111.4	0.93163
1111.6	0.93396
1111.8	0.93376
1112.0	0.93078
1112.2	0.93229
1112.4	0.93216
1112.6	0.93307
1112.8	0.93397
1113.0	0.93269
1113.2	0.9346
1113.4	0.93438
1113.6	0.93584
1113.8	0.93485
1114.0	0.93081
1114.2	0.93354
1114.4	0.93199
1114.6	0.93339
1114.8	0.93219
1115.0	0.93177
1115.2	0.93065
1115.4	0.9321
1115.6	0.9312
1115.8	0.93297
1116.0	0.93022
1116.2	0.93094
1116.4	0.93183
1116.6	0.92908
1116.8	0.92975
1117.0	0.92743
1117.2	0.92818
1117.4	0.92997
1117.6	0.92639
1117.8	0.92797
1118.0	0.92766
1118.2	0.92521
1118.4	0.92543
1118.6	0.92507
1118.8	0.92404
1119.0	0.92728
1119.2	0.92382
1119.4	0.92257
1119.6	0.9227
1119.8	0.92127
1120.0	0.92037
1120.2	0.92177
1120.4	0.91883
1120.6	0.91805
1120.8	0.91954
1121.0	0.92173
1121.2	0.92073
1121.4	0.91973
1121.6	0.91874
1121.8	0.91774
1122.0	0.91675
1122.2	0.91578
1122.4	0.91481
1122.6	0.91385
1122.8	0.91288
1123.0	0.91193
1123.2	0.91153
1123.4	0.91113
1123.6	0.91072
1123.8	0.91032
1124.0	0.90986
1124.2	0.90833
1124.4	0.90681
1124.6	0.90529
1124.8	0.90377
1125.0	0.90228
1125.2	0.90245
1125.4	0.90261
1125.6	0.90278
1125.8	0.90295
1126.0	0.90307
1126.2	0.90193
1126.4	0.90079
1126.6	0.89965
1126.8	0.89852
1127.0	0.89738
1127.2	0.89617
1127.4	0.89496
1127.6	0.89376
1127.8	0.89255
1128.0	0.89137
1128.2	0.89104
1128.4	0.89071
1128.6	0.89038
1128.8	0.89005
1129.0	0.88971
1129.2	0.88894
1129.4	0.88818
1129.6	0.88741
1129.8	0.88664
1130.0	0.88589
1130.2	0.88547
1130.4	0.88504
1130.6	0.88462
1130.8	0.88419
1131.0	0.88376
1131.2	0.88285
1131.4	0.88194
1131.6	0.88103
1131.8	0.88013
1132.0	0.87925
1132.2	0.8791
1132.4	0.87895
1132.6	0.8788
1132.8	0.87865
1133.0	0.8785
1133.2	0.8783
1133.4	0.87809
1133.6	0.87788
1133.8	0.87768
1134.0	0.87745
1134.2	0.87666
1134.4	0.87586
1134.6	0.87506
1134.8	0.87426
1135.0	0.87348
1135.2	0.87302
1135.4	0.87255
1135.6	0.87209
1135.8	0.87163
1136.0	0.87117
1136.2	0.87118
1136.4	0.87119
1136.6	0.8712
1136.8	0.87121
1137.0	0.87121
1137.2	0.87081
1137.4	0.8704
1137.6	0.87
1137.8	0.8696
1138.0	0.86922
1138.2	0.8693
1138.4	0.86939
1138.6	0.86948
1138.8	0.86957
1139.0	0.86965
1139.2	0.86925
1139.4	0.86885
1139.6	0.86845
1139.8	0.86805
1140.0	0.86769
1140.2	0.86825
1140.4	0.86882
1140.6	0.86938
1140.8	0.86994
1141.0	0.8705
1141.2	0.87015
1141.4	0.8698
1141.6	0.86945
1141.8	0.8691
1142.0	0.86877
1142.2	0.86916
1142.4	0.86956
1142.6	0.86996
1142.8	0.87035
1143.0	0.87072
1143.2	0.87044
1143.4	0.87017
1143.6	0.86989
1143.8	0.86962
1144.0	0.86936
1144.2	0.86995
1144.4	0.87054
1144.6	0.87113
1144.8	0.87173
1145.0	0.87233
1145.2	0.87327
1145.4	0.87421
1145.6	0.87515
1145.8	0.87609
1146.0	0.87702
1146.2	0.87703
1146.4	0.87705
1146.6	0.87706
1146.8	0.87708
1147.0	0.87711
1147.2	0.87778
1147.4	0.87844
1147.6	0.87911
1147.8	0.87978
1148.0	0.88045
1148.2	0.88078
1148.4	0.88112
1148.6	0.88146
1148.8	0.8818
1149.0	0.88214
1149.2	0.88281
1149.4	0.88347
1149.6	0.88414
1149.8	0.8848
1150.0	0.88547
1150.2	0.88628
1150.4	0.88709
1150.6	0.88789
1150.8	0.8887
1151.0	0.8895
1151.2	0.88997
1151.4	0.89043
1151.6	0.89089
1151.8	0.89135
1152.0	0.89183
1152.2	0.89251
1152.4	0.8932
1152.6	0.89389
1152.8	0.89458
1153.0	0.89527
1153.2	0.89601
1153.4	0.89675
1153.6	0.89749
1153.8	0.89824
1154.0	0.89897
1154.2	0.89943
1154.4	0.89988
1154.6	0.90034
1154.8	0.9008
1155.0	0.90127
1155.2	0.90227
1155.4	0.90327
1155.6	0.90427
1155.8	0.90528
1156.0	0.90627
1156.2	0.90672
1156.4	0.90717
1156.6	0.90762
1156.8	0.90807
1157.0	0.90852
1157.2	0.90907
1157.4	0.90961
1157.6	0.91016
1157.8	0.91071
1158.0	0.91126
1158.2	0.91215
1158.4	0.91304
1158.6	0.91392
1158.8	0.91481
1159.0	0.91568
1159.2	0.91608
1159.4	0.91648
1159.6	0.91687
1159.8	0.91727
1160.0	0.91767
1160.2	0.91808
1160.4	0.91849
1160.6	0.9189
1160.8	0.91931
1161.0	0.91974
1161.2	0.92042
1161.4	0.9211
1161.6	0.92179
1161.8	0.92247
1162.0	0.92315
1162.2	0.92341
1162.4	0.92367
1162.6	0.92392
1162.8	0.92418
1163.0	0.92443
1163.2	0.92459
1163.4	0.92474
1163.6	0.92489
1163.8	0.92505
1164.0	0.92521
1164.2	0.92563
1164.4	0.92605
1164.6	0.92647
1164.8	0.92689
1165.0	0.92731
1165.2	0.9276
1165.4	0.92789
1165.6	0.92819
1165.8	0.92848
1166.0	0.92876
1166.2	0.92869
1166.4	0.92862
1166.6	0.92854
1166.8	0.92847
1167.0	0.9284
1167.2	0.92825
1167.4	0.9281
1167.6	0.92796
1167.8	0.92781
1168.0	0.92766
1168.2	0.92757
1168.4	0.92749
1168.6	0.9274
1168.8	0.92732
1169.0	0.92725
1169.2	0.92745
1169.4	0.92766
1169.6	0.92786
1169.8	0.92807
1170.0	0.92826
1170.2	0.92775
1170.4	0.92725
1170.6	0.92675
1170.8	0.92625
1171.0	0.92574
1171.2	0.92518
1171.4	0.92462
1171.6	0.92405
1171.8	0.92349
1172.0	0.92294
1172.2	0.92261
1172.4	0.92228
1172.6	0.92195
1172.8	0.92162
1173.0	0.92129
1173.2	0.92102
1173.4	0.92076
1173.6	0.9205
1173.8	0.92023
1174.0	0.91996
1174.2	0.91927
1174.4	0.91858
1174.6	0.91789
1174.8	0.9172
1175.0	0.91651
1175.2	0.91575
1175.4	0.91499
1175.6	0.91423
1175.8	0.91347
1176.0	0.91271
1176.2	0.9118
1176.4	0.91089
1176.6	0.90998
1176.8	0.90907
1177.0	0.90817
1177.2	0.90756
1177.4	0.90694
1177.6	0.90632
1177.8	0.90571
1178.0	0.90509
1178.2	0.90444
1178.4	0.90378
1178.6	0.90313
1178.8	0.90248
1179.0	0.90182
1179.2	0.90109
1179.4	0.90035
1179.6	0.89962
1179.8	0.89888
1180.0	0.89814
1180.2	0.8971
1180.4	0.89606
1180.6	0.89502
1180.8	0.89399
1181.0	0.89294
1181.2	0.8917
1181.4	0.89046
1181.6	0.88922
1181.8	0.88798
1182.0	0.88674
1182.2	0.88565
1182.4	0.88457
1182.6	0.88348
1182.8	0.8824
1183.0	0.88132
1183.2	0.88044
1183.4	0.87956
1183.6	0.87868
1183.8	0.8778
1184.0	0.87692
1184.2	0.87592
1184.4	0.87491
1184.6	0.8739
1184.8	0.8729
1185.0	0.8719
1185.2	0.87112
1185.4	0.87033
1185.6	0.86955
1185.8	0.86876
1186.0	0.86798
1186.2	0.86716
1186.4	0.86634
1186.6	0.86552
1186.8	0.8647
1187.0	0.86389
1187.2	0.86306
1187.4	0.86223
1187.6	0.8614
1187.8	0.86057
1188.0	0.85974
1188.2	0.85888
1188.4	0.85802
1188.6	0.85717
1188.8	0.85631
1189.0	0.85545
1189.2	0.85454
1189.4	0.85362
1189.6	0.85271
1189.8	0.8518
1190.0	0.85089
1190.2	0.84995
1190.4	0.84901
1190.6	0.84807
1190.8	0.84714
1191.0	0.8462
1191.2	0.84534
1191.4	0.84447
1191.6	0.84361
1191.8	0.84275
1192.0	0.84188
1192.2	0.84087
1192.4	0.83985
1192.6	0.83884
1192.8	0.83783
1193.0	0.83683
1193.2	0.83624
1193.4	0.83564
1193.6	0.83505
1193.8	0.83445
1194.0	0.83385
1194.2	0.83312
1194.4	0.83238
1194.6	0.83165
1194.8	0.83092
1195.0	0.83018
1195.2	0.82936
1195.4	0.82853
1195.6	0.82771
1195.8	0.82689
1196.0	0.82608
1196.2	0.82553
1196.4	0.82498
1196.6	0.82443
1196.8	0.82388
1197.0	0.82333
1197.2	0.82288
1197.4	0.82242
1197.6	0.82197
1197.8	0.82151
1198.0	0.82106
1198.2	0.82047
1198.4	0.81989
1198.6	0.81931
1198.8	0.81872
1199.0	0.81815
1199.2	0.81785
1199.4	0.81755
1199.6	0.81725
1199.8	0.81696
1200.0	0.81666
